timestamps,TP9,AF7,AF8,TP10,Right AUX
1734296594.704,19.043,22.949,30.762,-10.742,-83.008
1734296594.708,56.152,25.391,33.691,89.844,179.688
1734296594.712,41.504,21.484,31.738,63.965,150.879
1734296594.715,2.441,18.555,31.250,-29.785,-117.188
1734296594.719,7.812,19.043,29.785,-27.344,-127.930
1734296594.723,42.969,19.043,25.391,69.336,141.602
1734296594.727,46.387,26.855,22.949,85.449,215.820
1734296594.731,14.648,35.156,22.949,-9.277,-10.254
1734296594.735,7.324,34.668,26.367,-41.992,-159.668
1734296594.739,43.457,34.180,26.855,43.457,62.500
1734296594.743,61.035,33.203,27.344,96.191,275.391
1734296594.747,32.227,28.809,32.715,28.320,79.102
1734296594.751,2.930,23.438,36.133,-43.457,-157.227
1734296594.755,32.715,24.902,30.762,26.367,-22.949
1734296594.758,75.195,40.039,20.508,116.211,210.938
1734296594.762,34.180,49.316,23.926,41.992,113.281
1734296594.766,-15.137,47.363,34.180,-50.293,-132.812
1734296594.770,18.066,44.434,36.621,0.977,-96.191
1734296594.774,61.035,49.805,35.645,93.262,148.438
1734296594.778,41.992,51.270,29.297,65.918,186.035
1734296594.782,5.859,46.387,23.438,-27.344,-56.641
1734296594.786,17.578,49.316,25.391,-18.555,-147.949
1734296594.790,51.758,54.199,23.926,72.266,87.402
1734296594.794,54.688,55.176,18.555,93.750,201.660
1734296594.797,17.578,49.805,20.996,2.930,-9.277
1734296594.801,5.371,48.340,25.391,-41.016,-161.133
1734296594.805,43.457,46.875,24.414,50.293,27.832
1734296594.809,66.895,49.805,25.879,111.816,207.520
1734296594.813,39.551,56.641,26.855,36.133,42.969
1734296594.817,12.695,53.711,24.902,-36.133,-174.316
1734296594.821,33.691,46.875,20.508,25.879,-42.969
1734296594.825,61.523,44.922,19.531,109.375,193.848
1734296594.829,43.945,35.156,23.438,63.965,107.422
1734296594.833,8.789,34.668,22.949,-28.320,-143.555
1734296594.836,24.902,46.387,22.461,-2.930,-113.770
1734296594.840,63.477,48.828,19.043,88.379,159.668
1734296594.844,50.781,49.316,21.484,83.008,205.566
1734296594.848,13.672,51.758,34.668,-8.789,-27.832
1734296594.852,12.695,54.199,34.668,-25.879,-136.719
1734296594.856,47.363,49.316,23.926,62.988,82.520
1734296594.860,56.641,44.922,21.973,98.145,219.238
1734296594.864,21.973,41.992,24.902,14.648,2.441
1734296594.868,3.906,40.039,25.391,-38.574,-163.086
1734296594.872,36.621,39.551,29.785,41.504,25.391
1734296594.876,69.336,38.086,34.180,114.746,240.234
1734296594.879,42.480,38.086,31.738,45.898,103.516
1734296594.883,1.465,41.504,23.438,-43.457,-149.902
1734296594.887,21.973,46.875,15.625,7.812,-68.359
1734296594.891,54.688,48.828,16.113,98.633,213.867
1734296594.895,36.133,48.828,21.973,58.594,147.949
1734296594.899,4.395,50.293,24.414,-36.133,-120.117
1734296594.903,12.207,49.805,24.902,-20.020,-119.629
1734296594.907,49.805,48.828,31.250,78.613,141.113
1734296594.911,50.781,49.805,36.621,90.332,225.586
1734296594.915,12.207,44.922,37.109,-2.441,-37.109
1734296594.918,7.812,42.480,36.133,-31.250,-176.270
1734296594.922,39.062,41.504,26.855,51.270,15.625
1734296594.926,48.828,38.574,20.508,93.750,210.449
1734296594.930,20.020,41.504,25.391,14.648,67.383
1734296594.934,-2.930,40.527,24.902,-46.875,-166.016
1734296594.938,28.809,40.039,26.367,32.227,-11.230
1734296594.942,54.199,40.527,25.391,112.793,233.398
1734296594.946,25.879,38.574,27.832,49.316,124.512
1734296594.950,2.930,36.621,31.250,-35.156,-137.207
1734296594.954,28.320,34.180,26.367,8.789,-75.684
1734296594.958,55.176,33.203,25.391,94.238,168.945
1734296594.961,36.133,35.156,24.902,63.477,152.832
1734296594.965,2.441,39.062,23.438,-31.738,-85.449
1734296594.969,7.812,36.621,22.461,-22.949,-122.070
1734296594.973,44.922,33.203,19.043,70.312,118.164
1734296594.977,45.410,42.969,24.414,82.520,180.176
1734296594.981,8.301,48.828,33.203,-8.789,-44.434
1734296594.985,1.465,41.016,31.250,-44.434,-169.434
1734296594.989,32.227,35.156,24.902,41.504,60.547
1734296594.993,46.387,33.203,20.020,101.562,246.582
1734296594.997,11.230,31.250,18.066,20.996,44.434
1734296595.001,-16.113,31.738,17.090,-60.547,-162.598
1734296595.004,14.648,30.762,19.531,9.766,-16.602
1734296595.008,39.062,28.809,17.578,86.914,232.422
1734296595.012,20.508,26.855,17.578,29.297,128.418
1734296595.016,-5.371,24.414,26.367,-51.270,-135.742
1734296595.020,7.324,28.320,26.367,-13.184,-95.703
1734296595.024,41.504,30.273,22.461,79.590,181.641
1734296595.028,37.598,27.344,23.926,63.477,198.242
1734296595.032,3.418,28.809,26.855,-25.391,-67.871
1734296595.036,3.418,23.926,23.926,-23.926,-135.742
1734296595.040,42.480,19.531,20.996,69.336,88.379
1734296595.043,47.363,23.438,22.461,96.191,218.750
1734296595.047,13.672,24.414,24.902,2.441,43.457
1734296595.051,-2.930,21.484,28.320,-46.875,-120.605
1734296595.055,21.973,20.508,30.762,39.062,60.547
1734296595.059,41.016,19.531,26.855,96.680,241.211
1734296595.063,8.789,18.066,27.832,15.625,73.242
1734296595.067,-12.207,21.484,27.832,-55.664,-149.414
1734296595.071,19.531,23.438,26.855,12.695,-55.176
1734296595.075,41.992,19.531,25.879,91.797,179.199
1734296595.079,21.484,18.066,24.414,44.434,126.465
1734296595.083,-12.207,20.996,26.367,-47.363,-126.953
1734296595.086,2.930,20.996,26.367,-24.414,-110.352
1734296595.090,43.945,21.973,27.832,74.219,128.418
1734296595.094,32.715,20.508,28.320,71.289,160.156
1734296595.098,0.000,13.184,30.273,-19.531,-69.336
1734296595.102,-1.953,10.254,26.855,-35.156,-126.953
1734296595.106,31.738,15.625,22.461,56.641,125.977
1734296595.110,44.922,20.508,22.949,91.797,243.164
1734296595.114,7.812,24.902,25.391,-2.930,15.137
1734296595.118,-10.742,28.320,30.273,-51.758,-169.434
1734296595.122,30.273,31.250,34.668,39.062,24.902
1734296595.125,57.617,31.738,35.645,104.492,257.324
1734296595.129,22.949,21.973,30.762,29.785,111.328
1734296595.133,-5.859,16.113,26.855,-49.316,-144.043
1734296595.137,17.090,19.043,27.832,6.836,-54.199
1734296595.141,52.246,26.367,31.250,100.098,207.520
1734296595.145,38.574,24.414,34.668,62.988,158.691
1734296595.149,1.953,19.043,30.273,-34.668,-118.164
1734296595.153,8.789,24.902,25.391,-12.695,-146.973
1734296595.157,44.434,28.809,28.320,84.961,114.746
1734296595.161,41.016,29.297,31.738,88.379,205.078
1734296595.165,3.906,28.809,32.715,-14.648,-62.988
1734296595.168,-5.859,25.879,28.809,-48.828,-196.777
1734296595.172,31.738,27.832,24.414,48.340,38.574
1734296595.176,45.898,29.785,22.949,92.773,220.703
1734296595.180,12.695,23.926,24.414,-0.977,35.645
1734296595.184,-16.113,20.508,23.438,-69.824,-182.617
1734296595.188,10.254,24.414,21.973,5.371,-19.531
1734296595.192,46.387,23.926,26.367,85.449,207.031
1734296595.196,18.066,17.578,31.250,26.855,85.938
1734296595.200,-11.719,17.090,33.203,-46.875,-163.086
1734296595.204,14.648,26.855,34.668,1.465,-106.445
1734296595.207,49.316,30.762,32.227,89.355,176.270
1734296595.211,46.387,27.832,24.902,73.242,205.566
1734296595.215,13.672,27.832,24.414,-21.973,-46.875
1734296595.219,19.043,28.320,24.902,-21.484,-115.234
1734296595.223,54.199,30.273,22.461,69.824,123.047
1734296595.227,48.340,29.785,23.438,81.543,238.281
1734296595.231,15.625,24.414,30.273,-3.418,-15.625
1734296595.235,0.488,24.902,30.762,-42.480,-176.270
1734296595.239,29.785,26.367,27.832,44.434,38.086
1734296595.243,54.688,24.902,27.344,98.633,187.988
1734296595.247,24.902,29.785,27.344,22.461,47.363
1734296595.250,6.836,35.645,31.250,-42.969,-145.996
1734296595.254,34.180,28.809,29.785,26.367,-29.785
1734296595.258,60.547,25.391,26.367,106.934,221.680
1734296595.262,41.016,26.367,30.273,52.734,126.953
1734296595.266,3.418,22.949,32.227,-33.691,-132.812
1734296595.270,14.160,27.344,30.762,-3.418,-87.891
1734296595.274,54.199,35.156,28.320,96.191,172.363
1734296595.278,45.898,34.668,26.367,83.496,212.891
1734296595.282,4.395,32.715,26.367,-15.137,-62.012
1734296595.286,6.836,33.691,30.273,-19.043,-169.922
1734296595.289,40.527,34.180,28.809,74.219,107.910
1734296595.293,47.852,32.227,25.391,104.980,241.211
1734296595.297,10.742,27.832,27.344,7.324,-11.719
1734296595.301,-12.695,24.414,28.809,-52.734,-184.570
1734296595.305,19.043,27.344,25.879,36.133,23.926
1734296595.309,42.969,32.227,24.414,101.074,231.445
1734296595.313,10.742,29.297,26.367,28.809,71.777
1734296595.317,-12.695,25.879,23.926,-49.316,-173.340
1734296595.321,12.207,26.855,23.438,13.672,-52.734
1734296595.325,43.945,27.832,22.461,102.539,223.145
1734296595.329,30.273,27.832,25.391,58.105,173.828
1734296595.332,-7.324,28.809,34.180,-31.738,-122.070
1734296595.336,3.906,31.738,29.297,-19.043,-114.258
1734296595.340,41.016,32.715,24.414,71.777,166.016
1734296595.344,39.551,31.738,31.738,77.637,206.055
1734296595.348,-0.977,29.297,36.133,-20.508,-59.082
1734296595.352,-7.324,25.879,28.320,-45.898,-166.992
1734296595.356,29.785,28.809,20.020,46.387,92.285
1734296595.360,45.410,29.785,20.508,94.238,250.977
1734296595.364,14.160,23.926,21.484,7.324,32.715
1734296595.368,-8.789,22.461,22.461,-57.617,-167.480
1734296595.371,21.973,24.414,21.973,23.926,12.695
1734296595.375,48.828,26.367,20.508,96.680,246.094
1734296595.379,24.902,26.367,23.438,27.832,86.426
1734296595.383,-5.859,26.367,24.902,-48.828,-181.152
1734296595.387,11.230,30.273,26.367,7.324,-83.496
1734296595.391,42.969,31.250,26.855,91.309,184.082
1734296595.395,29.297,32.715,25.391,51.270,149.414
1734296595.399,0.977,34.180,24.414,-44.434,-103.516
1734296595.403,20.508,36.133,22.461,-31.738,-120.605
1734296595.407,55.664,41.016,20.508,62.500,136.719
1734296595.411,47.363,40.527,25.879,75.684,212.402
1734296595.414,4.883,35.645,33.203,-19.531,-34.180
1734296595.418,-9.766,35.645,29.785,-55.176,-163.086
1734296595.422,25.391,37.598,26.367,43.457,82.031
1734296595.426,33.203,29.785,27.344,100.586,244.141
1734296595.430,-3.906,20.508,26.367,19.531,38.086
1734296595.434,-23.926,24.902,24.414,-54.199,-138.672
1734296595.438,10.742,34.668,24.414,15.137,7.812
1734296595.442,46.387,35.156,25.879,97.168,217.773
1734296595.446,24.902,36.133,29.785,42.480,78.125
1734296595.450,-4.395,41.992,30.762,-43.945,-170.410
1734296595.454,15.625,40.039,34.668,-5.371,-91.309
1734296595.457,50.781,35.645,36.621,82.520,160.645
1734296595.461,41.992,35.645,29.297,64.941,146.484
1734296595.465,9.766,33.203,25.879,-25.879,-111.816
1734296595.469,12.207,36.621,25.879,-32.715,-127.441
1734296595.473,48.340,36.621,28.809,64.453,142.090
1734296595.477,52.246,30.762,26.855,85.449,221.191
1734296595.481,11.230,30.762,24.414,-9.766,-17.578
1734296595.485,-1.465,31.250,25.391,-52.734,-182.617
1734296595.489,38.086,32.227,22.949,40.039,49.805
1734296595.493,63.477,33.691,27.344,103.516,260.742
1734296595.496,32.227,34.180,33.203,19.043,62.988
1734296595.500,3.418,34.180,35.156,-53.711,-192.383
1734296595.504,22.949,32.715,29.785,9.766,-59.570
1734296595.508,54.688,20.996,33.203,101.074,241.211
1734296595.512,54.199,18.066,42.480,72.266,148.926
1734296595.516,8.789,34.668,37.109,-33.691,-129.883
1734296595.520,-1.465,41.016,30.273,-30.273,-97.656
1734296595.524,43.457,38.086,27.344,70.312,151.855
1734296595.528,45.410,47.363,20.020,65.918,162.109
1734296595.532,8.301,61.523,15.625,-44.922,-93.750
1734296595.535,6.836,66.406,16.113,-54.199,-171.387
1734296595.539,38.574,74.219,11.230,36.133,69.336
1734296595.543,48.340,76.172,8.789,61.523,211.914
1734296595.547,7.324,78.125,5.371,-23.438,4.883
1734296595.551,-11.719,84.473,-3.906,-83.984,-172.363
1734296595.555,31.738,88.867,-12.207,3.418,16.113
1734296595.559,54.688,95.703,-13.672,67.871,240.723
1734296595.563,28.320,99.121,-18.555,-6.348,94.238
1734296595.567,5.859,99.121,-24.902,-78.613,-164.551
1734296595.571,28.320,102.539,-22.461,-21.973,-63.965
1734296595.575,65.918,104.980,-24.902,70.801,200.195
1734296595.578,46.875,105.957,-33.203,26.855,144.043
1734296595.582,9.766,109.375,-35.645,-68.359,-110.352
1734296595.586,34.668,108.398,-32.715,-34.180,-108.887
1734296595.590,73.730,103.516,-33.203,59.082,140.137
1734296595.594,68.359,99.609,-32.227,56.152,213.867
1734296595.598,31.250,98.633,-26.367,-35.156,-23.438
1734296595.602,27.832,93.262,-19.043,-52.734,-145.996
1734296595.606,66.895,85.938,-13.184,43.945,96.191
1734296595.610,81.055,83.984,-9.277,89.355,267.090
1734296595.614,46.875,80.566,-3.906,5.371,68.359
1734296595.618,27.344,73.242,-3.418,-53.223,-158.203
1734296595.621,64.941,67.383,-2.441,28.320,1.953
1734296595.625,93.262,66.895,-0.977,106.445,251.953
1734296595.629,64.453,66.895,1.953,46.875,109.863
1734296595.633,37.598,67.383,8.301,-31.738,-150.391
1734296595.637,59.570,66.406,3.906,15.137,-80.566
1734296595.641,84.473,57.129,-0.488,104.980,181.152
1734296595.645,65.918,52.734,2.930,80.566,173.340
1734296595.649,28.320,53.223,4.395,-17.090,-111.328
1734296595.653,30.273,49.316,4.883,-12.695,-145.508
1734296595.657,68.359,51.758,7.812,87.402,128.418
1734296595.660,69.336,55.176,10.254,102.539,205.078
1734296595.664,30.273,52.734,9.277,7.324,-16.602
1734296595.668,20.996,54.688,9.277,-25.879,-150.391
1734296595.672,57.129,56.641,10.742,56.641,37.109
1734296595.676,75.684,61.523,15.137,104.980,229.980
1734296595.680,43.945,66.406,20.020,29.785,50.293
1734296595.684,15.625,63.477,16.602,-40.039,-164.062
1734296595.688,34.668,62.012,7.812,17.090,-8.789
1734296595.692,62.500,57.617,6.348,92.773,214.355
1734296595.696,42.969,55.176,11.719,36.621,94.727
1734296595.700,9.277,62.988,13.672,-48.340,-150.879
1734296595.703,22.461,68.359,12.207,-4.883,-78.613
1734296595.707,61.523,65.918,9.277,84.473,170.410
1734296595.711,53.711,68.848,8.789,62.500,179.688
1734296595.715,12.695,71.777,12.207,-33.691,-80.078
1734296595.719,12.695,64.941,12.207,-33.203,-161.133
1734296595.723,49.805,62.988,13.184,63.965,127.441
1734296595.727,58.594,59.570,17.578,91.309,222.656
1734296595.731,21.484,57.129,15.625,2.930,-45.410
1734296595.735,8.789,59.082,14.160,-40.039,-183.594
1734296595.739,50.293,61.523,17.578,56.152,40.527
1734296595.742,75.195,63.965,17.578,115.234,254.395
1734296595.746,42.480,62.500,18.555,33.203,81.543
1734296595.750,8.301,56.152,21.484,-35.645,-170.898
1734296595.754,30.762,51.270,22.949,25.391,-41.504
1734296595.758,62.988,51.758,20.996,104.980,196.777
1734296595.762,45.898,49.805,22.461,55.176,133.301
1734296595.766,17.578,49.805,20.508,-29.297,-148.438
1734296595.770,31.250,50.781,15.625,6.348,-119.629
1734296595.774,50.293,45.410,21.484,92.773,195.312
1734296595.778,31.250,38.574,27.832,74.707,226.074
1734296595.782,-1.953,35.156,25.391,-27.344,-29.785
1734296595.785,-9.277,29.785,22.949,-45.898,-136.719
1734296595.789,24.902,23.926,20.996,50.293,82.520
1734296595.793,39.551,25.391,19.043,91.797,240.723
1734296595.797,12.695,31.250,22.461,12.207,16.113
1734296595.801,-0.488,33.691,27.832,-39.551,-182.129
1734296595.805,27.832,30.273,26.367,38.086,9.766
1734296595.809,52.246,26.855,19.531,105.957,245.605
1734296595.813,25.879,28.320,20.996,35.645,119.629
1734296595.817,2.930,23.926,21.973,-43.457,-140.137
1734296595.821,25.391,26.367,20.508,7.324,-59.082
1734296595.824,56.641,33.691,18.555,86.914,209.473
1734296595.828,48.340,33.691,16.113,48.828,154.297
1734296595.832,14.160,28.320,20.020,-40.527,-143.066
1734296595.836,25.879,24.902,23.926,-15.625,-133.789
1734296595.840,58.594,30.273,24.902,78.613,150.391
1734296595.844,49.805,38.574,25.391,76.660,192.871
1734296595.848,8.789,38.086,23.438,-10.742,-41.992
1734296595.852,-0.488,31.738,24.902,-30.273,-157.715
1734296595.856,31.250,28.320,29.297,55.176,65.430
1734296595.860,36.621,28.809,28.320,96.680,236.816
1734296595.864,2.930,30.273,27.832,3.906,43.457
1734296595.867,-13.184,32.227,29.785,-57.617,-160.645
1734296595.871,19.531,24.414,26.367,23.438,2.930
1734296595.875,50.781,21.484,25.391,93.750,230.469
1734296595.879,24.414,15.137,27.344,23.926,115.723
1734296595.883,-8.301,11.230,27.344,-54.688,-152.344
1734296595.887,6.836,31.738,25.879,-1.465,-74.707
1734296595.891,43.457,32.715,24.414,90.332,190.918
1734296595.895,36.133,24.414,28.809,59.570,145.508
1734296595.899,-7.812,33.691,26.367,-41.016,-116.699
1734296595.903,-8.301,35.645,20.508,-32.715,-143.555
1734296595.906,30.762,26.855,20.508,67.871,126.953
1734296595.910,30.273,27.832,16.602,61.035,228.516
1734296595.914,-3.418,27.832,15.137,-35.156,-11.719
1734296595.918,-7.812,27.832,16.113,-57.617,-173.828
1734296595.922,24.414,28.809,15.625,22.461,21.484
1734296595.926,43.457,22.461,16.113,92.285,243.164
1734296595.930,7.324,24.902,13.672,13.672,77.148
1734296595.934,-22.949,24.902,16.113,-76.172,-172.852
1734296595.938,1.953,30.762,20.020,-14.160,-21.973
1734296595.942,31.738,44.922,19.531,64.941,232.910
1734296595.946,12.207,45.898,25.391,15.137,104.492
1734296595.949,-13.672,45.410,29.785,-57.129,-161.133
1734296595.953,24.414,59.570,16.113,-14.648,-102.539
1734296595.957,71.289,63.965,17.578,87.402,169.922
1734296595.961,35.645,47.852,36.133,71.289,188.965
1734296595.965,-27.344,38.574,37.598,-41.992,-61.035
1734296595.969,-25.879,26.855,34.180,-43.945,-144.531
1734296595.973,20.996,19.043,43.945,56.152,95.215
1734296595.977,15.137,18.066,53.223,74.219,230.957
1734296595.981,-36.133,21.484,58.105,-20.020,2.441
1734296595.985,-46.875,26.367,61.035,-55.664,-152.344
1734296595.988,-22.461,17.090,66.406,21.973,48.340
1734296595.992,-15.137,12.207,74.707,68.848,230.957
1734296595.996,-39.551,18.555,72.266,-0.488,72.754
1734296596.000,-65.430,23.926,71.777,-71.777,-161.133
1734296596.004,-45.410,26.367,80.078,-9.277,-49.805
1734296596.008,-18.555,11.719,87.402,69.824,188.477
1734296596.012,-34.180,-0.488,86.426,18.555,137.695
1734296596.016,-64.941,1.465,85.938,-70.312,-122.070
1734296596.020,-49.805,2.441,88.867,-38.086,-114.746
1734296596.024,-7.324,-1.465,82.520,61.523,136.230
1734296596.028,-12.695,-10.742,77.637,52.246,170.410
1734296596.031,-33.203,-14.160,72.266,-32.227,-71.777
1734296596.035,-24.414,-15.137,63.477,-42.969,-157.227
1734296596.039,-2.441,-21.484,58.594,29.785,80.566
1734296596.043,33.691,-30.273,62.500,88.867,212.891
1734296596.047,21.973,-39.062,62.012,27.344,8.301
1734296596.051,-14.648,-30.273,51.270,-53.223,-148.926
1734296596.055,16.113,-10.742,47.852,25.391,55.664
1734296596.059,45.410,-12.695,48.828,114.258,256.348
1734296596.063,22.461,-17.578,43.457,51.270,79.590
1734296596.067,-0.488,-19.043,40.039,-23.926,-169.434
1734296596.071,27.344,-24.414,35.645,36.133,-42.969
1734296596.074,70.801,-19.531,35.645,125.977,213.867
1734296596.078,56.152,-12.207,38.574,93.262,144.531
1734296596.082,24.902,-14.160,33.691,-1.465,-122.070
1734296596.086,30.273,-19.531,29.785,14.160,-125.977
1734296596.090,59.570,-18.555,26.855,107.910,139.160
1734296596.094,57.129,-16.602,31.250,109.863,196.777
1734296596.098,17.578,-17.578,39.551,20.508,-48.340
1734296596.102,7.812,-18.066,35.156,-8.301,-154.785
1734296596.106,39.062,-17.578,30.273,79.102,67.871
1734296596.110,56.152,-16.602,27.344,125.977,222.168
1734296596.113,23.926,-18.066,25.391,39.551,23.438
1734296596.117,1.465,-17.578,23.926,-28.809,-198.730
1734296596.121,28.320,-16.113,19.043,49.316,-31.738
1734296596.125,55.176,-20.020,18.555,125.488,230.469
1734296596.129,37.109,-15.625,20.020,56.641,128.418
1734296596.133,8.301,-3.906,18.066,-29.297,-153.320
1734296596.137,29.785,0.977,22.461,20.996,-105.957
1734296596.141,66.406,4.395,30.273,105.469,137.207
1734296596.145,59.082,9.766,31.250,77.637,124.512
1734296596.149,22.461,13.184,24.902,-12.207,-121.094
1734296596.152,21.484,13.672,21.484,-12.695,-165.527
1734296596.156,61.523,13.672,22.949,83.496,102.539
1734296596.160,65.918,13.672,20.020,101.074,215.820
1734296596.164,27.832,16.113,23.926,8.789,-37.598
1734296596.168,15.137,18.066,30.273,-28.809,-198.242
1734296596.172,50.293,20.508,32.715,62.012,40.527
1734296596.176,70.312,20.508,33.691,118.164,226.074
1734296596.180,36.133,17.090,32.715,36.621,28.809
1734296596.184,9.766,12.207,33.691,-28.320,-178.711
1734296596.188,37.598,6.348,29.785,37.598,-27.344
1734296596.192,62.500,9.766,25.391,110.840,211.426
1734296596.195,35.156,15.137,26.855,57.617,125.488
1734296596.199,3.906,17.090,25.391,-33.203,-143.066
1734296596.203,17.578,19.531,23.926,0.488,-112.793
1734296596.207,52.246,19.531,25.879,100.586,176.758
1734296596.211,45.410,21.484,26.855,80.078,191.895
1734296596.215,24.902,28.320,19.531,-6.348,-83.008
1734296596.219,32.227,32.227,18.066,-0.488,-164.062
1734296596.223,32.715,24.414,34.668,64.941,90.332
1734296596.227,32.227,14.160,44.922,88.379,225.098
1734296596.231,9.277,7.324,41.992,13.184,-2.441
1734296596.235,1.465,-4.883,42.480,-30.762,-201.660
1734296596.238,36.133,-12.207,41.992,53.711,-3.906
1734296596.242,57.617,-8.789,37.109,116.699,243.164
1734296596.246,28.809,-4.395,35.156,41.016,66.895
1734296596.250,-6.348,1.953,34.180,-43.457,-191.406
1734296596.254,21.484,3.906,34.180,20.508,-51.270
1734296596.258,56.152,-3.418,32.227,112.793,203.613
1734296596.262,34.668,-6.348,27.832,68.848,131.836
1734296596.266,2.441,-9.766,24.902,-21.484,-108.887
1734296596.270,19.531,-6.348,23.438,8.301,-124.023
1734296596.274,53.711,3.418,25.391,101.562,132.812
1734296596.277,54.199,1.465,27.832,99.121,199.219
1734296596.281,20.996,-2.441,25.879,6.836,-35.645
1734296596.285,13.672,0.000,25.391,-14.160,-128.418
1734296596.289,59.082,0.488,33.691,80.566,78.613
1734296596.293,68.848,1.465,39.062,113.281,234.375
1734296596.297,29.785,1.465,30.273,20.996,36.133
1734296596.301,14.160,-3.418,20.996,-41.504,-176.758
1734296596.305,44.434,-5.859,17.090,26.855,-4.883
1734296596.309,75.684,-2.441,15.625,102.051,230.957
1734296596.313,53.223,1.953,21.484,35.645,70.801
1734296596.317,21.484,8.789,27.344,-41.992,-162.109
1734296596.320,44.434,8.301,28.809,19.531,-47.852
1734296596.324,75.684,11.719,35.156,113.770,190.918
1734296596.328,55.176,16.113,38.574,81.543,134.277
1734296596.332,11.719,10.742,36.621,-12.695,-128.418
1734296596.336,8.301,10.254,34.668,5.859,-121.094
1734296596.340,44.434,12.695,31.738,101.562,129.395
1734296596.344,43.457,14.648,28.809,103.027,203.125
1734296596.348,6.348,16.602,29.785,6.836,-55.176
1734296596.352,2.441,18.066,31.250,-20.996,-183.594
1734296596.356,42.969,20.996,35.645,69.824,66.895
1734296596.359,62.012,23.438,41.504,116.211,252.930
1734296596.363,28.320,21.973,42.480,26.855,46.875
1734296596.367,0.000,23.926,40.527,-43.945,-182.129
1734296596.371,25.391,28.320,37.598,23.926,-32.715
1734296596.375,49.316,29.785,29.785,93.750,189.453
1734296596.379,19.531,27.832,27.344,31.250,108.398
1734296596.383,-5.371,25.391,37.109,-53.223,-137.695
1734296596.387,16.113,26.367,37.109,-7.324,-84.473
1734296596.391,46.875,19.043,31.250,88.867,193.848
1734296596.395,26.855,13.184,33.203,60.059,186.035
1734296596.399,-5.859,19.043,32.227,-39.551,-80.078
1734296596.402,5.859,24.414,34.180,-31.250,-151.367
1734296596.406,42.969,25.391,35.156,67.871,98.633
1734296596.410,50.781,23.926,33.203,87.402,196.777
1734296596.414,7.324,23.926,31.250,-10.742,-28.320
1734296596.418,-4.395,26.855,30.273,-51.270,-167.480
1734296596.422,35.645,27.344,36.621,41.992,7.324
1734296596.426,50.781,28.320,38.086,97.656,218.262
1734296596.430,20.020,21.973,33.691,20.508,68.848
1734296596.434,-3.906,12.695,31.738,-44.922,-140.137
1734296596.438,27.832,16.602,29.785,18.066,0.488
1734296596.442,58.105,22.949,28.320,90.332,209.473
1734296596.445,33.203,18.066,25.879,40.039,88.867
1734296596.449,2.930,6.348,24.414,-46.875,-161.621
1734296596.453,15.137,10.254,24.902,-12.207,-72.266
1734296596.457,46.387,23.926,29.785,79.102,187.988
1734296596.461,40.527,26.855,26.367,58.594,169.434
1734296596.465,2.930,22.949,17.578,-39.551,-67.383
1734296596.469,1.465,19.531,20.020,-43.945,-140.137
1734296596.473,41.992,19.531,20.996,59.570,85.449
1734296596.477,66.406,18.555,21.484,95.215,219.727
1734296596.481,20.996,15.137,28.320,-2.930,0.488
1734296596.484,-20.996,13.672,32.227,-64.941,-183.105
1734296596.488,19.531,9.277,32.715,25.391,-1.465
1734296596.492,58.105,10.742,36.621,103.027,224.121
1734296596.496,29.785,10.742,41.016,35.156,80.566
1734296596.500,1.465,11.230,38.574,-46.875,-167.480
1734296596.504,21.484,20.020,33.691,7.812,-45.410
1734296596.508,55.664,26.367,31.738,91.797,217.773
1734296596.512,42.969,27.832,33.203,56.152,151.855
1734296596.516,2.930,24.414,32.227,-34.668,-106.934
1734296596.520,11.230,28.809,26.367,-22.461,-99.609
1734296596.524,53.711,38.574,25.391,76.660,146.973
1734296596.527,47.852,44.434,30.273,78.125,200.195
1734296596.531,11.230,42.480,35.645,-11.230,-30.762
1734296596.535,14.648,42.480,36.621,-27.832,-163.086
1734296596.539,44.922,43.457,34.668,59.570,69.824
1734296596.543,47.852,37.598,34.180,98.633,244.629
1734296596.547,17.578,35.645,33.203,7.812,25.879
1734296596.551,5.371,38.086,35.156,-47.852,-181.152
1734296596.555,31.738,39.551,39.062,31.250,-8.789
1734296596.559,47.852,41.504,34.668,94.238,218.750
1734296596.563,25.391,41.016,30.762,28.809,92.773
1734296596.566,-3.418,37.598,35.156,-48.340,-144.043
1734296596.570,20.020,37.109,35.645,4.395,-71.289
1734296596.574,61.035,36.621,33.203,90.820,185.059
1734296596.578,43.945,29.785,33.691,63.477,171.875
1734296596.582,6.348,23.926,37.598,-22.949,-76.172
1734296596.586,14.160,26.855,41.992,-10.742,-112.305
1734296596.590,49.805,32.715,41.016,86.914,133.301
1734296596.594,47.363,31.738,41.992,84.961,213.867
1734296596.598,10.254,27.344,41.992,-13.184,-49.805
1734296596.602,0.000,26.367,37.598,-39.551,-193.848
1734296596.606,29.297,21.484,31.738,50.781,53.711
1734296596.609,42.969,19.043,29.785,98.145,213.379
1734296596.613,12.207,21.973,27.832,14.648,4.883
1734296596.617,-13.672,20.996,26.367,-48.828,-198.242
1734296596.621,13.184,24.414,28.809,23.926,-31.250
1734296596.625,37.598,32.715,31.250,103.027,216.797
1734296596.629,8.789,37.598,31.738,39.062,111.328
1734296596.633,-18.555,37.598,29.297,-54.688,-124.023
1734296596.637,0.977,37.109,20.996,-17.090,-73.730
1734296596.641,30.762,36.133,16.113,77.148,169.922
1734296596.645,26.367,27.344,22.949,60.547,162.598
1734296596.648,-5.371,24.414,23.438,-34.180,-106.934
1734296596.652,-4.883,32.227,20.020,-34.668,-123.535
1734296596.656,35.645,33.203,25.391,63.477,116.211
1734296596.660,39.551,31.738,26.855,83.008,209.473
1734296596.664,5.371,33.203,28.320,-7.812,-1.465
1734296596.668,-0.977,27.832,32.227,-48.340,-172.363
1734296596.672,35.645,23.438,31.738,38.574,40.527
1734296596.676,49.805,26.367,23.438,97.656,228.027
1734296596.680,16.602,25.879,19.043,24.902,50.781
1734296596.684,-5.859,17.578,23.926,-44.922,-166.016
1734296596.688,18.555,11.719,22.461,20.508,-17.578
1734296596.691,43.945,13.672,21.973,104.980,198.730
1734296596.695,20.508,15.137,24.902,47.363,109.863
1734296596.699,-9.277,15.625,28.320,-41.992,-122.559
1734296596.703,9.766,18.066,33.691,-7.812,-120.605
1734296596.707,36.621,20.020,30.273,77.148,169.922
1734296596.711,28.809,18.555,28.320,58.105,209.961
1734296596.715,-1.953,17.090,28.320,-38.086,-85.449
1734296596.719,-4.883,23.438,27.344,-46.387,-166.504
1734296596.723,26.367,28.809,25.391,45.410,98.633
1734296596.727,33.691,21.973,25.391,77.637,242.676
1734296596.731,1.953,20.508,31.738,-5.859,-12.207
1734296596.734,-18.066,21.973,36.133,-56.152,-193.848
1734296596.738,22.949,20.020,37.109,24.902,16.602
1734296596.742,45.410,26.855,36.133,89.844,219.727
1734296596.746,4.883,26.855,35.156,16.113,66.895
1734296596.750,-19.043,20.020,31.738,-57.617,-162.598
1734296596.754,1.953,20.996,27.832,0.977,-54.199
1734296596.758,32.227,26.367,29.297,86.914,166.992
1734296596.762,18.555,27.832,35.156,51.270,73.730
1734296596.766,-15.625,29.297,37.109,-39.551,-148.926
1734296596.770,0.000,33.691,35.156,-17.578,-120.605
1734296596.773,42.480,34.180,36.621,80.566,125.000
1734296596.777,36.621,32.227,36.133,83.008,183.594
1734296596.781,2.930,31.738,31.738,-8.789,-44.922
1734296596.785,3.418,31.250,31.738,-28.809,-166.504
1734296596.789,41.016,28.320,28.320,61.523,59.082
1734296596.793,57.129,25.391,26.367,104.492,216.797
1734296596.797,20.996,29.785,31.250,15.137,1.953
1734296596.801,-0.488,32.715,29.785,-56.152,-183.105
1734296596.805,32.227,33.691,32.715,25.391,-1.953
1734296596.809,58.105,36.621,35.645,98.633,227.539
1734296596.813,35.156,35.645,27.832,31.250,84.961
1734296596.816,1.953,36.133,27.344,-47.363,-147.461
1734296596.820,14.648,33.691,32.227,3.418,-50.293
1734296596.824,46.387,33.203,29.785,86.426,207.520
1734296596.828,31.250,38.086,26.855,47.363,173.828
1734296596.832,1.465,41.504,26.855,-39.551,-99.609
1734296596.836,12.695,41.016,30.762,-22.461,-146.484
1734296596.840,44.922,36.621,34.668,75.195,99.121
1734296596.844,47.363,33.203,31.250,80.566,207.520
1734296596.848,8.301,32.227,27.832,-17.578,-25.879
1734296596.852,-9.277,31.738,26.855,-44.434,-182.129
1734296596.855,24.902,30.762,27.832,46.387,43.945
1734296596.859,42.480,30.273,29.297,97.656,248.535
1734296596.863,3.906,26.367,30.273,15.137,55.664
1734296596.867,-23.438,26.367,31.738,-51.270,-160.156
1734296596.871,5.371,31.738,34.668,20.508,-7.812
1734296596.875,38.574,32.227,40.527,96.680,231.445
1734296596.879,19.043,26.367,43.945,41.016,113.770
1734296596.883,-16.113,25.879,37.598,-47.363,-118.164
1734296596.887,2.441,29.785,28.809,-8.789,-55.664
1734296596.891,43.457,32.715,25.391,81.543,148.438
1734296596.895,37.109,34.180,25.391,62.012,165.039
1734296596.898,-3.906,34.180,25.391,-30.273,-68.848
1734296596.902,2.441,38.086,25.391,-35.645,-110.840
1734296596.906,50.293,42.480,28.809,61.035,126.465
1734296596.910,59.570,46.875,33.203,84.961,207.031
1734296596.914,24.414,45.898,28.809,-6.836,-11.719
1734296596.918,12.695,40.039,31.250,-47.852,-174.316
1734296596.922,39.551,40.039,29.785,38.086,56.641
1734296596.926,54.199,40.039,20.508,97.168,254.395
1734296596.930,28.809,38.086,22.949,17.090,49.805
1734296596.934,-1.953,34.180,26.855,-58.594,-165.527
1734296596.937,20.996,31.738,28.320,10.254,-41.016
1734296596.941,52.246,35.645,31.738,90.820,208.496
1734296596.945,31.250,33.691,39.551,44.434,130.859
1734296596.949,-4.883,30.273,35.156,-42.480,-130.859
1734296596.953,7.812,28.809,26.855,-11.719,-88.867
1734296596.957,49.316,29.785,32.227,83.496,169.922
1734296596.961,48.828,35.156,37.598,72.754,187.012
1734296596.965,10.742,26.367,37.109,-20.020,-65.430
1734296596.969,1.953,19.043,32.715,-28.809,-133.301
1734296596.973,42.480,24.902,31.738,69.824,100.098
1734296596.977,51.270,26.367,36.133,103.516,231.934
1734296596.980,14.648,25.879,38.574,15.137,9.766
1734296596.984,2.441,27.344,35.156,-40.527,-202.637
1734296596.988,35.645,26.855,28.809,37.109,7.324
1734296596.992,55.664,24.902,30.273,108.887,243.164
1734296596.996,25.391,25.391,34.668,41.504,71.289
1734296597.000,0.977,27.344,33.691,-35.156,-188.477
1734296597.004,28.320,25.391,30.273,24.902,-77.637
1734296597.008,59.570,27.832,29.785,107.910,197.266
1734296597.012,34.668,23.926,27.344,64.941,137.695
1734296597.016,-1.953,17.090,22.461,-28.320,-117.188
1734296597.019,11.230,16.113,18.555,-14.648,-141.602
1734296597.023,43.457,10.254,17.578,81.543,102.051
1734296597.027,36.133,8.301,22.949,86.426,181.152
1734296597.031,3.906,10.254,30.762,-9.277,-66.895
1734296597.035,-1.465,1.465,31.250,-35.645,-173.828
1734296597.039,34.180,-0.488,33.691,53.711,49.805
1734296597.043,52.246,11.230,34.180,100.098,214.355
1734296597.047,23.438,20.508,26.855,18.555,13.672
1734296597.051,2.930,24.414,22.949,-48.340,-190.430
1734296597.055,29.785,21.484,22.461,22.949,-7.324
1734296597.059,58.594,20.996,23.926,93.750,213.867
1734296597.062,26.855,21.973,30.273,31.250,69.336
1734296597.066,-0.977,18.555,32.227,-47.852,-174.316
1734296597.070,23.926,19.531,27.832,-4.395,-84.473
1734296597.074,53.711,19.531,25.879,83.496,186.523
1734296597.078,41.992,18.555,27.832,56.641,138.672
1734296597.082,10.742,19.043,26.855,-34.668,-122.559
1734296597.086,14.160,18.066,22.949,-27.344,-126.953
1734296597.090,42.480,13.184,20.020,64.941,119.629
1734296597.094,46.387,11.719,21.973,83.984,195.312
1734296597.098,9.277,11.719,25.391,-9.766,-39.062
1734296597.101,-1.953,13.672,24.414,-47.363,-176.270
1734296597.105,37.109,18.555,24.414,48.828,48.828
1734296597.109,52.246,16.602,29.297,104.980,227.051
1734296597.113,17.578,18.555,34.180,22.461,30.762
1734296597.117,-2.930,21.973,29.785,-41.992,-181.152
1734296597.121,22.461,18.555,26.855,28.320,-51.758
1734296597.125,50.293,20.996,29.297,108.398,180.176
1734296597.129,29.785,21.973,31.250,54.688,112.793
1734296597.133,4.883,21.973,33.691,-40.039,-149.414
1734296597.137,25.391,23.438,31.738,-6.348,-104.492
1734296597.141,47.852,19.043,27.832,87.891,185.547
1734296597.144,34.668,19.531,28.809,66.406,201.660
1734296597.148,1.465,24.902,30.762,-27.344,-59.570
1734296597.152,4.395,25.391,28.320,-30.273,-147.949
1734296597.156,43.457,23.438,25.391,60.059,84.473
1734296597.160,50.293,20.996,28.320,86.914,202.148
1734296597.164,10.742,20.020,34.668,-4.883,-26.367
1734296597.168,-4.395,18.066,33.691,-50.293,-185.059
1734296597.172,24.414,16.602,30.273,32.227,10.254
1734296597.176,39.062,20.508,25.879,86.426,206.055
1734296597.180,15.137,24.902,24.902,14.648,42.480
1734296597.183,-10.742,22.949,26.855,-53.223,-156.738
1734296597.187,11.719,20.020,26.855,9.766,-32.227
1734296597.191,48.828,20.020,26.367,85.449,187.988
1734296597.195,31.250,14.160,27.832,37.109,134.766
1734296597.199,-3.418,13.184,26.855,-47.363,-96.680
1734296597.203,18.066,20.508,29.297,-13.184,-86.914
1734296597.207,58.105,26.367,36.621,83.984,145.508
1734296597.211,49.316,27.832,32.715,70.801,191.406
1734296597.215,6.836,24.414,22.949,-26.855,-62.500
1734296597.219,0.488,22.949,19.043,-33.691,-159.668
1734296597.223,31.250,21.973,20.508,61.035,81.543
1734296597.226,32.715,21.484,24.902,94.727,216.309
1734296597.230,-3.906,22.461,29.785,9.766,10.742
1734296597.234,-18.066,18.555,29.785,-43.945,-173.340
1734296597.238,21.973,19.531,27.832,39.062,10.254
1734296597.242,53.711,30.273,31.250,106.934,229.004
1734296597.246,29.297,29.785,31.250,34.180,72.754
1734296597.250,1.953,24.902,27.344,-44.922,-162.109
1734296597.254,23.438,26.367,24.902,6.348,-59.570
1734296597.258,54.199,26.367,23.438,92.285,200.684
1734296597.262,39.062,28.809,21.484,54.688,151.367
1734296597.265,8.789,28.809,22.461,-41.504,-147.461
1734296597.269,14.648,30.273,21.973,-28.320,-136.230
1734296597.273,38.574,36.621,20.508,67.383,142.578
1734296597.277,36.133,33.691,20.020,73.730,195.312
1734296597.281,4.883,35.156,18.066,-20.020,-58.594
1734296597.285,-1.953,37.598,17.578,-49.805,-183.105
1734296597.289,31.250,34.180,20.996,38.574,62.500
1734296597.293,46.875,32.227,23.926,87.891,226.562
1734296597.297,16.602,35.156,21.484,5.371,6.836
1734296597.301,-2.441,35.156,20.996,-52.246,-202.148
1734296597.305,26.855,30.273,20.996,21.484,-15.625
1734296597.308,55.176,29.785,22.461,85.449,232.422
1734296597.312,34.668,29.297,25.879,31.738,109.863
1734296597.316,3.906,28.320,28.320,-40.527,-133.301
1734296597.320,22.949,27.832,30.273,3.418,-68.848
1734296597.324,53.711,19.043,27.832,92.285,199.219
1734296597.328,36.621,19.043,27.344,66.406,189.453
1734296597.332,-3.906,22.461,25.879,-30.273,-89.355
1734296597.336,4.395,21.484,23.926,-25.879,-130.371
1734296597.340,39.062,22.949,28.320,74.707,141.602
1734296597.344,37.109,25.879,35.156,88.379,233.398
1734296597.348,1.953,20.020,41.504,-6.348,-22.461
1734296597.351,-9.766,16.602,37.598,-44.922,-165.527
1734296597.355,24.902,23.926,34.668,45.898,62.500
1734296597.359,46.387,32.715,36.133,101.562,229.004
1734296597.363,12.207,37.598,31.738,15.625,51.758
1734296597.367,-12.207,35.156,28.320,-59.570,-144.531
1734296597.371,23.926,28.320,27.344,17.578,-12.695
1734296597.375,62.012,28.809,29.785,99.609,227.051
1734296597.379,34.180,32.227,32.715,35.156,134.766
1734296597.383,-2.441,29.297,38.574,-49.805,-108.398
1734296597.387,16.113,25.879,39.551,-15.137,-62.500
1734296597.390,49.805,28.809,37.598,73.730,171.387
1734296597.394,41.016,28.809,33.691,61.523,171.387
1734296597.398,2.930,26.367,24.902,-34.180,-84.961
1734296597.402,3.906,23.438,22.949,-41.992,-143.066
1734296597.406,37.598,19.043,27.832,54.199,91.309
1734296597.410,51.758,17.578,28.320,85.938,202.637
1734296597.414,37.598,18.066,28.320,9.766,-7.324
1734296597.418,10.742,15.137,28.809,-46.387,-200.195
1734296597.422,22.461,11.230,25.391,17.578,3.418
1734296597.426,52.246,8.301,27.344,82.520,229.492
1734296597.430,42.969,7.324,34.668,28.320,61.523
1734296597.433,20.996,10.254,31.738,-37.109,-171.387
1734296597.437,31.250,10.742,26.367,13.184,-57.617
1734296597.441,58.105,9.766,29.297,99.609,205.078
1734296597.445,44.434,15.625,30.762,54.688,145.020
1734296597.449,11.719,22.949,30.273,-34.668,-120.605
1734296597.453,23.926,24.414,34.180,-2.930,-128.418
1734296597.457,58.105,25.879,30.273,89.844,142.578
1734296597.461,51.270,24.902,26.855,83.008,214.355
1734296597.465,11.719,18.555,29.297,-13.672,-53.223
1734296597.469,7.324,16.602,29.297,-31.738,-176.758
1734296597.472,42.480,23.438,26.367,56.641,76.660
1734296597.476,54.199,31.250,27.344,94.727,235.352
1734296597.480,17.090,31.250,32.227,6.836,32.715
1734296597.484,-5.371,28.320,32.715,-53.223,-147.461
1734296597.488,21.973,24.902,29.297,30.762,12.207
1734296597.492,45.410,25.391,23.926,97.168,208.008
1734296597.496,21.484,28.809,22.461,31.250,85.938
1734296597.500,-10.254,28.809,23.926,-50.293,-145.508
1734296597.504,14.160,23.926,27.832,7.812,-72.266
1734296597.508,54.688,20.020,34.180,104.004,185.059
1734296597.512,34.668,20.508,34.180,60.547,145.020
1734296597.515,5.371,23.438,27.832,-32.227,-111.328
1734296597.519,20.996,26.367,30.273,-18.066,-102.539
1734296597.523,51.758,20.020,35.645,81.055,149.414
1734296597.527,45.898,12.695,31.250,92.773,210.938
1734296597.531,10.742,20.508,27.832,-7.324,-42.969
1734296597.535,3.418,23.926,26.855,-36.133,-177.734
1734296597.539,37.598,20.996,24.414,53.711,61.523
1734296597.543,57.617,30.273,25.391,101.562,225.098
1734296597.547,25.391,32.227,28.809,15.625,13.184
1734296597.551,-1.953,25.391,24.902,-48.828,-187.988
1734296597.554,25.879,23.926,22.949,34.668,-7.812
1734296597.558,52.246,22.461,26.855,108.887,230.469
1734296597.562,23.438,21.484,30.273,47.363,95.703
1734296597.566,-8.789,21.484,30.273,-36.133,-153.809
1734296597.570,9.277,20.020,23.926,0.977,-76.660
1734296597.574,42.480,20.020,18.555,90.332,177.734
1734296597.578,36.621,16.113,19.043,67.383,165.527
1734296597.582,4.395,4.883,20.508,-27.832,-111.816
1734296597.586,3.418,3.418,22.461,-24.414,-157.227
1734296597.590,34.668,16.113,24.902,72.754,121.094
1734296597.594,36.621,23.438,23.438,87.891,198.730
1734296597.597,2.930,18.066,16.113,-12.207,-39.551
1734296597.601,-14.160,9.766,17.578,-51.270,-179.688
1734296597.605,16.113,13.184,15.625,38.574,31.250
1734296597.609,41.504,22.461,11.719,94.727,221.680
1734296597.613,11.719,24.902,20.020,20.508,27.344
1734296597.617,-10.742,25.391,23.438,-43.945,-182.129
1734296597.621,19.531,26.367,25.879,26.855,-24.414
1734296597.625,46.387,26.855,30.273,100.586,214.355
1734296597.629,27.344,27.344,34.668,43.457,109.863
1734296597.633,-2.930,24.902,30.762,-43.457,-151.855
1734296597.636,13.184,23.926,22.949,-8.789,-112.793
1734296597.640,49.316,25.879,21.484,84.473,126.465
1734296597.644,41.504,23.926,23.926,65.918,161.133
1734296597.648,8.789,26.367,28.809,-26.367,-68.359
1734296597.652,5.371,33.203,28.320,-32.227,-142.090
1734296597.656,40.039,33.203,27.832,57.129,113.770
1734296597.660,49.805,32.227,36.621,82.520,238.281
1734296597.664,16.602,31.250,38.574,-7.324,6.836
1734296597.668,-4.395,31.738,28.320,-57.617,-165.039
1734296597.672,20.508,34.180,21.973,22.461,46.875
1734296597.676,41.992,35.645,24.414,84.961,249.023
1734296597.679,16.602,34.180,23.926,11.230,37.109
1734296597.683,-15.625,29.785,21.973,-58.105,-199.219
1734296597.687,8.789,26.367,21.484,6.348,-70.312
1734296597.691,45.410,21.484,25.391,88.867,180.176
1734296597.695,28.320,20.996,36.133,48.828,131.348
1734296597.699,-6.836,25.391,35.156,-41.992,-133.301
1734296597.703,3.418,26.855,28.320,-15.625,-98.633
1734296597.707,40.527,23.926,23.926,84.473,163.574
1734296597.711,34.668,26.367,22.461,78.613,189.453
1734296597.715,-4.395,27.344,28.320,-19.531,-52.734
1734296597.718,-4.883,26.855,29.785,-36.133,-146.484
1734296597.722,36.133,31.738,30.273,62.012,93.750
1734296597.726,51.270,31.738,38.574,103.516,231.934
1734296597.730,19.531,32.227,47.363,16.113,28.320
1734296597.734,-0.488,23.926,45.410,-50.781,-168.945
1734296597.738,29.785,18.555,33.203,25.391,-2.930
1734296597.742,50.781,24.414,27.832,101.562,222.656
1734296597.746,19.531,32.715,28.809,30.273,92.285
1734296597.750,-2.930,34.180,31.738,-55.664,-138.672
1734296597.754,20.996,29.785,30.762,-2.930,-66.406
1734296597.758,51.270,30.273,30.273,93.750,179.688
1734296597.761,35.156,31.738,31.738,60.547,152.344
1734296597.765,-1.953,26.367,32.715,-35.156,-95.703
1734296597.769,10.742,20.020,33.691,-20.996,-117.188
1734296597.773,52.246,20.020,31.738,76.660,120.117
1734296597.777,50.781,24.414,33.691,83.008,200.684
1734296597.781,5.371,27.344,37.109,-15.137,-26.855
1734296597.785,-5.371,29.785,28.809,-41.016,-160.645
1734296597.789,35.645,32.715,20.508,54.688,61.035
1734296597.793,49.805,36.133,19.531,98.633,238.281
1734296597.797,14.648,36.133,21.484,17.578,50.781
1734296597.801,-4.883,36.133,26.367,-45.898,-163.086
1734296597.804,24.902,37.598,31.738,27.344,-7.324
1734296597.808,48.340,32.227,31.738,103.027,228.027
1734296597.812,19.043,31.738,29.297,38.574,108.887
1734296597.816,-10.742,32.227,30.762,-41.504,-134.277
1734296597.820,11.719,31.250,31.738,0.488,-87.402
1734296597.824,50.293,31.738,34.180,89.844,170.410
1734296597.828,37.109,28.320,32.227,66.406,182.617
1734296597.832,0.000,31.738,27.344,-35.645,-98.633
1734296597.836,13.184,34.180,25.879,-30.273,-147.949
1734296597.840,53.223,26.855,28.809,69.824,105.957
1734296597.843,55.664,30.273,31.250,90.332,234.863
1734296597.847,20.020,37.598,33.203,-3.418,-12.207
1734296597.851,2.930,34.668,33.691,-47.852,-178.711
1734296597.855,33.691,26.367,29.785,43.945,50.781
1734296597.859,56.152,26.855,21.973,98.145,255.371
1734296597.863,25.391,33.691,22.461,22.949,64.453
1734296597.867,1.953,30.273,24.902,-45.898,-182.129
1734296597.871,28.320,28.320,24.902,16.602,-38.574
1734296597.875,52.246,33.691,25.879,98.633,213.379
1734296597.879,28.320,32.715,25.879,48.340,103.516
1734296597.883,-5.859,25.879,27.832,-44.434,-165.039
1734296597.886,11.719,26.367,25.879,-16.113,-107.422
1734296597.890,49.805,31.738,26.855,80.566,179.199
1734296597.894,37.598,29.297,27.832,72.754,190.430
1734296597.898,2.441,26.855,25.391,-23.926,-94.727
1734296597.902,2.441,24.414,25.391,-34.180,-147.461
1734296597.906,33.691,25.879,23.438,53.711,101.562
1734296597.910,42.480,32.715,24.902,82.520,210.938
1734296597.914,12.207,34.180,28.320,-3.418,-0.488
1734296597.918,-1.465,29.297,32.227,-49.805,-171.875
1734296597.922,25.879,21.484,33.691,42.480,5.859
1734296597.925,46.875,27.344,29.785,102.539,195.312
1734296597.929,22.949,39.062,28.809,26.367,34.668
1734296597.933,0.000,40.527,25.879,-46.387,-168.945
1734296597.937,24.902,38.574,25.879,10.254,-57.129
1734296597.941,59.570,35.645,27.344,102.051,189.941
1734296597.945,41.992,38.574,26.855,62.988,149.902
1734296597.949,5.859,44.922,24.902,-36.133,-118.652
1734296597.953,17.090,43.945,23.926,-16.113,-120.117
1734296597.957,56.152,38.574,25.879,83.984,119.629
1734296597.961,48.828,37.109,27.344,80.078,168.457
1734296597.965,9.277,38.086,28.809,-20.020,-56.152
1734296597.968,7.812,27.344,28.809,-36.621,-164.062
1734296597.972,42.480,24.414,30.273,63.477,70.312
1734296597.976,51.758,37.109,28.809,103.027,218.750
1734296597.980,14.160,39.551,25.391,10.742,8.789
1734296597.984,-4.395,33.691,24.902,-50.781,-180.176
1734296597.988,29.785,33.203,24.414,25.879,-7.324
1734296597.992,55.176,33.203,29.785,104.492,210.938
1734296597.996,25.391,30.762,35.645,41.504,83.496
1734296598.000,-4.883,31.250,29.785,-48.828,-134.766
1734296598.004,13.672,30.273,22.461,-1.953,-74.219
1734296598.007,46.387,31.738,23.438,85.449,179.688
1734296598.011,36.621,31.738,26.367,53.223,150.879
1734296598.015,-3.906,30.273,27.832,-37.598,-125.000
1734296598.019,-6.348,29.297,24.902,-29.297,-139.160
1734296598.023,32.227,27.344,24.414,64.941,125.000
1734296598.027,33.691,20.020,24.414,78.125,204.590
1734296598.031,0.488,11.719,26.367,-15.137,-25.391
1734296598.035,-8.789,16.602,32.715,-46.387,-156.738
1734296598.039,21.484,21.973,31.738,46.387,53.223
1734296598.043,41.016,25.879,34.668,96.191,228.516
1734296598.047,5.371,28.809,38.086,18.066,47.363
1734296598.050,-17.090,21.973,33.203,-40.527,-165.527
1734296598.054,18.555,20.996,31.738,31.250,-13.184
1734296598.058,50.781,27.344,32.715,111.328,219.727
1734296598.062,31.250,26.855,32.715,55.664,112.793
1734296598.066,8.301,28.320,34.180,-29.297,-129.395
1734296598.070,32.227,27.344,34.180,5.859,-94.727
1734296598.074,57.129,26.855,32.227,88.867,169.922
1734296598.078,42.480,30.762,34.180,65.430,178.711
1734296598.082,5.371,31.738,33.203,-32.715,-86.426
1734296598.086,3.418,30.762,25.879,-33.203,-139.160
1734296598.089,36.133,32.227,20.508,63.965,119.629
1734296598.093,49.316,36.621,19.043,83.496,231.445
1734296598.097,17.578,39.551,20.020,-12.695,-20.508
1734296598.101,3.418,36.133,20.508,-58.105,-173.828
1734296598.105,42.480,37.598,20.996,31.250,43.945
1734296598.109,65.918,43.457,20.996,83.008,228.516
1734296598.113,29.785,38.574,18.555,0.000,40.039
1734296598.117,-1.465,33.203,19.531,-65.430,-153.809
1734296598.121,24.414,39.062,20.996,0.977,-13.184
1734296598.125,48.340,38.574,20.996,88.867,206.055
1734296598.129,17.578,32.715,25.879,49.805,120.117
1734296598.132,-17.578,33.203,23.926,-41.016,-117.676
1734296598.136,-8.789,32.715,21.973,-14.648,-82.520
1734296598.140,21.973,28.809,26.855,77.148,171.875
1734296598.144,26.367,24.414,28.320,65.430,181.152
1734296598.148,-6.836,23.926,26.367,-27.832,-87.891
1734296598.152,-11.230,25.879,27.832,-40.527,-165.527
1734296598.156,24.414,25.879,30.762,52.246,86.914
1734296598.160,32.227,26.367,25.391,86.426,229.492
1734296598.164,-2.441,29.785,21.484,-6.348,-6.836
1734296598.168,-18.066,27.832,21.484,-59.570,-187.500
1734296598.172,18.555,22.949,21.484,29.785,35.156
1734296598.175,39.062,21.973,23.926,97.656,243.652
1734296598.179,8.301,20.996,27.344,28.809,77.148
1734296598.183,-15.137,15.625,26.855,-44.434,-164.062
1734296598.187,13.184,11.230,27.832,17.578,-43.945
1734296598.191,54.199,15.137,31.250,105.957,228.027
1734296598.195,40.039,15.625,33.203,60.547,163.574
1734296598.199,7.812,14.648,34.668,-26.367,-113.770
1734296598.203,25.391,20.508,34.668,-2.930,-143.066
1734296598.207,61.035,23.926,30.273,82.520,118.652
1734296598.211,51.758,21.973,29.297,83.496,198.730
1734296598.214,17.090,21.973,30.762,-12.207,-31.738
1734296598.218,14.160,22.461,27.344,-32.715,-151.367
1734296598.222,44.434,22.949,27.832,61.523,74.707
1734296598.226,56.641,24.414,29.785,100.586,253.906
1734296598.230,22.949,23.926,28.320,14.648,42.480
1734296598.234,-2.441,31.250,27.832,-50.293,-180.664
1734296598.238,34.180,37.109,30.762,24.414,-8.789
1734296598.242,54.199,35.645,29.297,95.215,225.098
1734296598.246,21.973,37.109,25.391,29.297,82.031
1734296598.250,3.906,38.086,25.879,-48.340,-169.922
1734296598.254,29.785,36.621,27.832,3.418,-72.754
1734296598.257,64.941,39.062,29.785,91.309,174.316
1734296598.261,49.805,37.109,29.785,66.406,156.738
1734296598.265,14.160,32.715,36.133,-22.461,-80.078
1734296598.269,19.531,30.273,40.039,-13.672,-104.980
1734296598.273,57.129,30.762,35.645,81.055,147.949
1734296598.277,61.523,36.133,31.738,89.844,225.098
1734296598.281,18.066,37.109,32.715,-5.859,-58.594
1734296598.285,7.324,32.227,35.645,-35.156,-205.078
1734296598.289,47.363,35.156,36.133,58.105,43.457
1734296598.293,64.453,39.062,42.480,109.375,229.004
1734296598.296,26.855,38.574,45.410,26.367,23.926
1734296598.300,7.324,41.992,47.852,-37.598,-176.758
1734296598.304,40.039,43.945,48.828,35.156,6.348
1734296598.308,65.430,39.062,38.574,108.887,256.348
1734296598.312,43.945,37.109,30.762,46.387,127.930
1734296598.316,11.230,34.180,30.762,-41.992,-135.742
1734296598.320,28.320,32.227,30.762,2.930,-73.730
1734296598.324,58.105,34.668,35.645,94.727,194.336
1734296598.328,43.945,34.180,41.504,73.242,194.824
1734296598.332,12.695,31.738,39.551,-20.508,-88.379
1734296598.336,15.625,33.203,37.598,-22.949,-153.809
1734296598.339,48.340,36.621,37.598,77.637,114.258
1734296598.343,51.758,37.598,38.086,98.633,239.258
1734296598.347,18.066,37.109,36.133,3.906,21.973
1734296598.351,2.930,37.598,36.621,-41.016,-167.480
1734296598.355,41.016,38.086,36.133,42.969,20.508
1734296598.359,68.848,38.574,39.062,104.980,228.516
1734296598.363,35.645,40.527,41.992,29.785,44.434
1734296598.367,11.230,42.969,37.109,-43.457,-161.621
1734296598.371,41.992,50.293,29.297,15.625,-18.066
1734296598.375,59.570,51.270,24.902,92.773,220.215
1734296598.378,37.109,46.387,30.273,48.828,142.090
1734296598.382,11.230,43.457,33.691,-33.203,-133.301
1734296598.386,20.508,44.434,32.715,-1.953,-105.469
1734296598.390,58.105,43.945,34.180,94.238,150.391
1734296598.394,50.293,42.969,34.180,84.473,183.594
1734296598.398,12.207,41.504,35.645,-11.719,-59.082
1734296598.402,8.301,33.691,33.203,-20.508,-143.066
1734296598.406,37.109,29.297,29.297,72.754,112.305
1734296598.410,50.781,30.273,34.668,100.586,236.328
1734296598.414,17.578,32.227,35.645,15.625,-5.859
1734296598.418,-3.418,33.203,31.738,-35.156,-176.270
1734296598.421,30.762,29.785,31.250,41.016,29.297
1734296598.425,56.641,23.926,33.691,104.004,230.469
1734296598.429,21.484,21.484,31.738,30.762,80.566
1734296598.433,-13.672,27.832,34.668,-46.875,-152.344
1734296598.437,7.812,30.762,38.086,12.207,-52.246
1734296598.441,41.504,29.785,30.762,98.145,212.891
1734296598.445,24.902,26.367,30.273,53.223,148.438
1734296598.449,-7.812,27.344,32.227,-40.039,-120.605
1734296598.453,9.277,29.785,32.715,-16.602,-133.789
1734296598.457,42.969,28.320,32.227,79.590,127.441
1734296598.460,40.039,25.879,28.809,81.543,227.539
1734296598.464,6.836,24.902,27.344,-16.113,-19.043
1734296598.468,-2.441,25.391,27.832,-46.387,-162.598
1734296598.472,28.809,23.438,28.320,46.875,69.824
1734296598.476,49.316,22.461,30.762,90.332,225.586
1734296598.480,17.578,23.438,34.180,7.812,23.438
1734296598.484,-8.789,25.391,35.156,-48.828,-198.730
1734296598.488,20.508,25.391,27.832,24.414,-22.461
1734296598.492,50.781,27.344,23.438,101.074,232.422
1734296598.496,22.461,30.762,26.367,39.551,102.051
1734296598.500,-2.441,32.227,28.809,-39.062,-156.250
1734296598.503,26.367,35.156,29.785,14.648,-53.223
1734296598.507,56.152,33.691,26.855,103.516,228.516
1734296598.511,41.016,33.691,26.855,70.312,162.109
1734296598.515,4.395,33.691,30.273,-22.949,-90.820
1734296598.519,9.766,35.645,30.762,-12.207,-137.695
1734296598.523,48.828,38.574,27.344,83.984,101.074
1734296598.527,56.641,35.645,26.367,97.656,214.355
1734296598.531,19.043,36.621,27.344,2.930,-26.855
1734296598.535,8.301,37.598,30.762,-27.832,-161.133
1734296598.539,45.410,39.062,36.133,62.988,46.387
1734296598.542,53.223,41.504,30.762,104.492,240.723
1734296598.546,20.996,39.551,25.879,19.531,64.453
1734296598.550,-2.441,36.621,26.367,-41.992,-166.016
1734296598.554,22.461,31.250,26.367,26.855,-20.996
1734296598.558,57.129,30.273,29.297,106.934,231.445
1734296598.562,36.133,33.691,32.227,54.688,125.488
1734296598.566,3.906,37.598,32.715,-36.133,-147.461
1734296598.570,22.949,35.645,34.180,-3.418,-102.539
1734296598.574,50.293,25.879,32.227,87.891,173.340
1734296598.578,31.738,25.391,24.414,66.406,172.363
1734296598.582,-5.859,28.809,20.508,-33.203,-82.520
1734296598.585,-7.812,29.297,24.902,-36.133,-134.277
1734296598.589,29.785,29.297,27.344,61.035,108.398
1734296598.593,38.574,27.832,28.809,85.449,213.379
1734296598.597,0.488,26.367,32.227,-5.859,-12.207
1734296598.601,-14.648,23.926,33.691,-54.199,-154.785
1734296598.605,16.113,22.949,34.180,29.785,53.711
1734296598.609,41.504,25.879,31.250,87.891,259.277
1734296598.613,21.973,28.320,32.227,12.695,60.547
1734296598.617,-3.906,27.344,30.762,-56.641,-190.430
1734296598.621,17.578,28.809,21.484,2.441,-32.227
1734296598.624,46.875,25.391,18.066,84.473,213.867
1734296598.628,26.855,25.391,18.066,40.039,124.512
1734296598.632,0.488,29.297,23.438,-47.363,-149.414
1734296598.636,8.789,30.273,27.832,-17.090,-128.906
1734296598.640,39.062,29.297,24.902,74.707,166.016
1734296598.644,39.062,26.367,24.414,67.383,188.477
1734296598.648,0.977,34.180,27.344,-23.926,-73.730
1734296598.652,2.930,39.551,28.320,-35.645,-151.855
1734296598.656,48.828,35.156,23.926,62.500,89.844
1734296598.660,51.758,34.180,23.438,94.727,240.723
1734296598.664,10.254,35.645,31.250,7.324,23.438
1734296598.667,-0.488,34.668,30.762,-39.062,-145.508
1734296598.671,37.109,30.273,31.250,44.922,7.812
1734296598.675,58.594,31.250,33.691,105.957,215.332
1734296598.679,31.738,37.109,32.715,31.250,88.379
1734296598.683,11.230,39.551,28.809,-42.480,-171.875
1734296598.687,32.715,40.527,29.297,20.996,-57.129
1734296598.691,63.477,45.898,35.645,110.352,194.824
1734296598.695,49.805,41.992,37.109,74.707,162.598
1734296598.699,8.789,32.227,31.738,-24.414,-77.637
1734296598.703,15.625,33.691,31.250,-4.883,-83.984
1734296598.707,55.664,35.645,39.062,103.027,151.367
1734296598.710,50.781,35.156,42.480,97.168,210.449
1734296598.714,9.766,33.203,38.086,-7.812,-40.039
1734296598.718,7.324,30.762,38.574,-35.156,-180.664
1734296598.722,36.621,33.691,37.598,55.176,60.059
1734296598.726,46.875,36.133,36.133,99.121,245.117
1734296598.730,15.137,34.668,37.598,9.277,57.129
1734296598.734,-6.348,33.203,31.738,-53.711,-164.551
1734296598.738,27.832,31.738,29.297,22.949,-9.277
1734296598.742,52.734,35.645,37.598,98.633,236.816
1734296598.746,26.367,39.551,41.504,35.156,110.840
1734296598.749,-0.488,32.715,41.016,-47.363,-144.531
1734296598.753,13.184,28.809,37.109,3.906,-68.359
1734296598.757,41.016,26.367,33.691,88.867,218.750
1734296598.761,33.203,25.879,35.156,61.035,201.172
1734296598.765,-2.441,30.273,38.086,-32.715,-85.449
1734296598.769,0.000,29.785,35.156,-27.832,-137.207
1734296598.773,39.062,25.391,35.156,72.266,142.578
1734296598.777,38.574,22.949,36.621,83.496,229.004
1734296598.781,6.348,23.926,34.180,-7.812,-14.648
1734296598.785,6.348,22.461,28.320,-34.668,-154.297
1734296598.789,37.109,20.020,24.902,54.688,62.500
1734296598.792,48.828,21.973,27.344,101.562,255.859
1734296598.796,16.602,20.020,25.879,18.066,41.504
1734296598.800,-11.719,15.625,24.414,-53.711,-181.641
1734296598.804,18.066,14.160,26.855,14.160,-24.902
1734296598.808,41.992,16.602,30.273,99.121,219.727
1734296598.812,18.066,17.090,37.598,45.898,111.328
1734296598.816,-3.418,11.230,36.133,-44.922,-135.742
1734296598.820,13.672,6.348,31.738,-6.348,-94.727
1734296598.824,41.504,8.301,32.227,85.449,151.367
1734296598.828,34.668,10.254,30.762,66.895,192.383
1734296598.832,1.953,8.789,29.297,-23.926,-68.359
1734296598.835,0.000,8.301,26.367,-31.250,-155.273
1734296598.839,38.574,9.766,23.438,62.500,96.680
1734296598.843,46.875,12.207,26.855,89.844,216.797
1734296598.847,10.254,14.648,29.297,0.000,-21.484
1734296598.851,-7.812,16.602,23.926,-52.246,-206.543
1734296598.855,21.484,15.625,20.508,32.715,-5.371
1734296598.859,42.969,16.602,20.020,96.680,187.988
1734296598.863,14.648,18.555,24.902,16.113,34.180
1734296598.867,-6.348,18.066,27.832,-61.523,-172.363
1734296598.871,25.391,17.578,27.344,3.906,-39.062
1734296598.874,51.270,14.160,29.785,91.797,221.680
1734296598.878,26.367,13.184,26.855,46.387,129.883
1734296598.882,-3.418,18.066,21.484,-40.039,-125.000
1734296598.886,10.742,22.461,19.531,-12.695,-103.027
1734296598.890,48.340,24.902,18.555,83.008,145.508
1734296598.894,49.316,24.414,21.484,83.496,164.551
1734296598.898,16.602,24.414,22.461,-14.648,-85.938
1734296598.902,15.137,30.762,19.531,-30.762,-149.414
1734296598.906,49.316,38.574,20.996,68.848,67.871
1734296598.910,60.059,39.551,27.832,102.051,207.520
1734296598.914,26.855,34.668,32.715,13.672,8.789
1734296598.917,0.488,30.762,28.809,-40.527,-185.059
1734296598.921,24.902,32.227,22.949,39.062,5.859
1734296598.925,50.781,31.250,23.926,108.398,227.051
1734296598.929,23.926,27.832,25.391,36.133,84.961
1734296598.933,-2.930,28.320,24.414,-44.922,-182.617
1734296598.937,20.996,32.227,25.879,14.160,-83.984
1734296598.941,51.270,36.133,25.879,94.727,194.824
1734296598.945,34.180,40.039,30.273,51.758,146.973
1734296598.949,3.906,40.527,36.133,-37.109,-90.332
1734296598.953,15.625,38.086,30.273,-23.438,-120.605
1734296598.956,41.504,38.574,19.531,67.871,130.371
1734296598.960,36.621,38.574,18.066,74.707,212.891
1734296598.964,4.883,41.016,20.020,-16.602,-41.992
1734296598.968,3.418,42.480,23.438,-42.969,-170.410
1734296598.972,38.574,40.039,22.461,45.898,48.340
1734296598.976,44.434,38.086,20.996,91.309,234.375
1734296598.980,8.789,38.574,29.297,5.371,47.852
1734296598.984,-7.812,41.504,31.738,-58.105,-155.762
1734296598.988,21.973,35.156,29.297,18.066,-0.488
1734296598.992,48.340,27.832,22.461,90.820,208.008
1734296598.996,20.508,32.227,18.555,25.391,86.914
1734296598.999,-9.277,38.086,17.090,-58.105,-146.973
1734296599.003,19.043,35.645,13.672,-8.789,-76.172
1734296599.007,54.199,31.738,15.137,77.637,186.035
1734296599.011,43.945,32.715,16.113,45.410,176.758
1734296599.015,18.555,34.180,19.043,-41.992,-104.980
1734296599.019,24.414,30.273,21.484,-24.414,-158.203
1734296599.023,62.500,31.738,23.438,79.590,112.793
1734296599.027,62.988,41.504,28.809,93.262,223.145
1734296599.031,17.578,39.062,26.855,0.000,-13.184
1734296599.035,3.418,33.691,20.020,-32.715,-165.527
1734296599.038,29.297,34.668,20.508,51.270,39.062
1734296599.042,43.945,33.691,21.973,102.051,248.535
1734296599.046,18.066,32.715,23.926,24.414,48.340
1734296599.050,-5.371,31.250,23.926,-52.246,-191.406
1734296599.054,20.020,29.297,23.438,13.672,-25.391
1734296599.058,45.898,28.320,27.344,91.797,234.863
1734296599.062,17.090,26.855,28.320,32.715,125.000
1734296599.066,-18.066,26.367,26.367,-58.594,-140.625
1734296599.070,-0.488,28.809,23.926,-22.461,-80.078
1734296599.074,33.203,24.414,19.531,74.707,186.523
1734296599.078,25.391,18.555,20.020,56.641,179.199
1734296599.081,-9.766,23.926,21.484,-36.621,-88.867
1734296599.085,-5.371,30.762,22.461,-41.016,-141.602
1734296599.089,29.785,33.691,23.438,48.828,112.793
1734296599.093,34.180,34.180,27.344,69.824,214.844
1734296599.097,-3.906,44.922,38.086,-18.555,1.465
1734296599.101,-10.742,58.105,45.410,-53.711,-165.039
1734296599.105,23.438,39.551,40.527,29.297,26.855
1734296599.109,27.832,32.715,40.039,78.125,236.328
1734296599.113,-10.742,48.340,39.062,-7.324,83.008
1734296599.117,-43.457,44.922,40.527,-90.332,-162.109
1734296599.120,-23.926,63.477,37.109,-33.691,-64.453
1734296599.124,23.926,90.332,55.176,62.988,188.965
1734296599.128,0.000,104.492,75.195,11.230,114.746
1734296599.132,-63.965,101.562,79.590,-105.957,-145.020
1734296599.136,-62.988,111.816,96.191,-89.355,-126.953
1734296599.140,-32.227,140.625,104.492,-0.488,121.582
1734296599.144,-59.082,146.484,93.262,-26.855,188.965
1734296599.148,-124.023,139.648,90.332,-156.738,-43.945
1734296599.152,-136.719,154.297,99.121,-187.988,-149.902
1734296599.156,-102.051,165.039,102.539,-97.168,93.750
1734296599.160,-105.957,153.809,108.398,-72.266,221.191
1734296599.163,-147.461,157.227,112.305,-162.109,10.254
1734296599.167,-166.992,165.527,111.816,-215.332,-169.922
1734296599.171,-136.719,169.434,113.281,-135.254,14.648
1734296599.175,-99.121,164.062,117.188,-55.176,223.633
1734296599.179,-124.023,153.809,115.234,-116.211,66.406
1734296599.183,-146.973,151.367,105.957,-191.895,-148.926
1734296599.187,-105.469,138.672,98.633,-118.652,-54.199
1734296599.191,-58.594,106.445,92.773,-12.207,187.012
1734296599.195,-55.664,112.793,92.773,-36.133,137.207
1734296599.199,-75.684,125.488,89.844,-112.793,-120.605
1734296599.203,-64.941,111.816,71.777,-88.867,-128.418
1734296599.206,-15.625,106.445,55.664,15.625,130.371
1734296599.210,-0.977,94.727,45.410,35.156,224.609
1734296599.214,-20.020,77.148,37.598,-48.828,-39.551
1734296599.218,-14.648,49.805,34.668,-55.664,-169.434
1734296599.222,32.227,42.969,30.762,48.828,73.730
1734296599.226,64.453,53.223,21.973,98.633,230.469
1734296599.230,43.457,40.527,11.719,27.832,48.340
1734296599.234,32.715,26.367,3.418,-23.438,-170.410
1734296599.238,72.754,25.879,-5.859,57.129,-19.531
1734296599.242,113.281,19.043,-7.812,141.113,235.840
1734296599.245,98.145,10.254,-9.277,90.332,109.375
1734296599.249,76.660,5.859,-15.625,18.555,-143.555
1734296599.253,104.980,-0.977,-18.066,74.707,-77.148
1734296599.257,143.555,-0.488,-18.555,166.992,173.828
1734296599.261,135.742,0.977,-19.531,145.020,172.363
1734296599.265,104.492,-8.789,-16.602,58.594,-84.473
1734296599.269,107.910,-11.230,-11.230,70.312,-132.812
1734296599.273,136.719,-12.695,-12.207,168.945,100.586
1734296599.277,136.230,-22.461,-20.508,173.828,202.637
1734296599.281,102.539,-27.832,-26.855,72.754,-58.105
1734296599.285,82.520,-28.320,-29.297,38.574,-215.332
1734296599.288,114.746,-25.879,-27.832,124.512,34.668
1734296599.292,139.160,-25.391,-25.391,177.734,234.863
1734296599.296,104.004,-32.715,-18.066,99.121,68.359
1734296599.300,79.102,-40.527,-13.672,27.344,-156.738
1734296599.304,105.957,-32.715,-16.113,97.656,-38.086
1734296599.308,125.977,-19.531,-20.020,178.711,218.750
1734296599.312,91.797,-20.508,-17.578,119.629,144.043
1734296599.316,62.988,-25.879,-13.184,29.785,-117.676
1734296599.320,83.984,-24.414,-19.531,65.430,-83.984
1734296599.324,118.652,-21.973,-18.555,159.668,167.969
1734296599.327,109.863,-20.508,-9.277,144.043,158.203
1734296599.331,69.336,-27.832,-8.301,42.969,-89.844
1734296599.335,66.895,-30.273,-8.301,32.715,-151.367
1734296599.339,99.121,-14.160,-4.883,124.512,100.586
1734296599.343,109.863,-10.742,-4.395,148.438,235.352
1734296599.347,72.266,-13.672,-3.906,53.711,-11.719
1734296599.351,39.551,-11.230,-4.883,-1.953,-166.504
1734296599.355,65.918,-11.230,-6.348,76.660,39.551
1734296599.359,89.844,-17.090,-3.418,134.766,222.168
1734296599.363,55.176,-20.508,2.930,67.383,66.895
1734296599.367,23.438,-12.207,3.906,-4.395,-165.039
1734296599.370,47.852,-10.254,0.488,52.246,-45.410
1734296599.374,78.125,-12.695,2.441,134.766,232.910
1734296599.378,60.547,-7.812,5.371,85.938,155.762
1734296599.382,26.367,-1.953,7.324,-3.418,-129.883
1734296599.386,33.691,0.977,8.301,21.484,-108.398
1734296599.390,67.383,-4.883,5.859,109.863,162.598
1734296599.394,58.105,-4.883,7.812,100.586,192.383
1734296599.398,11.230,-3.418,6.836,1.953,-71.289
1734296599.402,9.277,-6.836,5.371,-13.184,-160.645
1734296599.406,47.363,-5.371,4.883,78.125,89.355
1734296599.409,56.152,-2.441,4.395,115.723,242.676
1734296599.413,22.949,-1.953,7.324,24.414,34.668
1734296599.417,8.301,2.441,16.113,-34.668,-181.641
1734296599.421,49.805,11.230,18.555,51.758,-33.691
1734296599.425,72.266,10.254,17.578,119.141,209.961
1734296599.429,40.039,8.301,19.531,51.758,87.891
1734296599.433,18.066,8.301,18.066,-27.832,-184.082
1734296599.437,39.551,1.465,19.531,26.855,-80.566
1734296599.441,72.266,0.000,18.066,116.211,195.801
1734296599.445,59.570,6.836,18.066,80.078,153.809
1734296599.449,23.438,5.859,24.414,-9.766,-106.934
1734296599.452,36.133,9.277,25.879,4.395,-140.137
1734296599.456,75.684,13.184,23.926,98.633,103.516
1734296599.460,70.312,10.742,23.926,102.051,181.152
1734296599.464,28.809,11.230,22.949,3.906,-44.922
1734296599.468,23.926,2.930,21.484,-19.531,-147.461
1734296599.472,62.012,-2.441,21.973,72.266,83.008
1734296599.476,71.777,9.277,22.949,117.188,253.418
1734296599.480,32.715,17.578,20.508,37.598,58.594
1734296599.484,15.625,16.602,21.484,-28.809,-157.227
1734296599.488,44.434,17.578,23.438,37.109,21.973
1734296599.491,63.965,20.996,21.484,111.816,245.605
1734296599.495,37.109,15.625,19.531,48.340,104.004
1734296599.499,2.441,4.883,20.508,-40.039,-140.137
1734296599.503,22.461,12.695,26.367,6.348,-72.754
1734296599.507,52.246,21.973,25.879,94.238,196.289
1734296599.511,34.180,18.066,24.414,63.477,194.336
1734296599.515,5.371,12.695,26.855,-26.855,-88.379
1734296599.519,7.324,11.719,24.902,-22.949,-155.762
1734296599.523,41.992,16.113,27.344,74.219,118.164
1734296599.527,48.828,20.508,30.762,93.262,228.516
1734296599.531,5.371,22.949,32.715,-2.441,-21.973
1734296599.534,-3.906,23.438,36.133,-41.016,-178.223
1734296599.538,32.227,22.949,36.133,46.875,35.645
1734296599.542,58.105,25.391,31.738,110.352,212.891
1734296599.546,30.762,26.367,30.762,28.809,51.270
1734296599.550,-20.020,22.461,34.668,-57.617,-168.945
1734296599.554,3.906,17.090,35.156,15.137,-20.020
1734296599.558,51.270,13.184,33.691,110.840,228.027
1734296599.562,31.738,9.277,36.133,57.617,129.395
1734296599.566,2.930,15.137,39.551,-33.203,-125.000
1734296599.570,20.996,22.949,36.621,-3.906,-115.234
1734296599.573,51.758,20.020,26.855,83.008,159.180
1734296599.577,44.434,15.137,24.902,73.730,193.359
1734296599.581,12.695,23.438,33.203,-18.555,-54.199
1734296599.585,10.742,26.367,35.645,-28.809,-134.277
1734296599.589,45.898,20.508,32.227,59.570,95.215
1734296599.593,56.152,17.578,26.855,84.961,208.496
1734296599.597,14.648,17.578,26.367,-3.418,-27.832
1734296599.601,-3.906,17.578,29.297,-52.734,-206.543
1734296599.605,31.250,15.625,26.855,32.715,1.465
1734296599.609,54.688,21.973,28.320,100.098,208.008
1734296599.613,22.949,23.438,29.297,29.297,48.340
1734296599.616,-6.836,22.461,28.320,-47.363,-178.223
1734296599.620,14.648,23.438,30.273,15.625,-58.594
1734296599.624,52.246,20.508,30.273,101.562,197.754
1734296599.628,37.109,16.602,30.273,52.734,138.672
1734296599.632,-1.465,16.602,34.180,-34.668,-104.492
1734296599.636,8.789,19.531,32.715,-10.254,-103.027
1734296599.640,46.387,24.414,23.438,83.496,152.832
1734296599.644,46.875,23.926,25.391,80.078,200.684
1734296599.648,13.184,19.043,26.367,-18.555,-63.965
1734296599.652,4.883,22.949,26.855,-31.738,-171.387
1734296599.656,40.527,22.461,31.250,66.895,62.500
1734296599.659,53.223,20.996,31.250,106.445,235.352
1734296599.663,16.602,23.926,29.785,19.043,41.992
1734296599.667,-5.859,20.508,28.809,-39.062,-180.664
1734296599.671,16.602,20.508,27.344,38.574,0.488
1734296599.675,41.016,24.414,29.785,104.492,234.375
1734296599.679,16.602,23.926,34.668,38.086,91.797
1734296599.683,-8.301,22.949,32.715,-43.457,-151.367
1734296599.687,19.531,28.809,28.809,4.883,-62.988
1734296599.691,50.781,34.668,32.227,86.426,206.543
1734296599.695,36.133,36.133,26.855,47.852,162.598
1734296599.698,4.395,36.621,20.996,-40.039,-105.469
1734296599.702,12.207,32.227,21.973,-26.367,-121.094
1734296599.706,46.387,27.344,23.926,70.801,128.418
1734296599.710,46.875,26.367,31.250,88.379,205.566
1734296599.714,15.137,30.762,34.668,0.488,-26.855
1734296599.718,7.812,32.715,35.645,-28.320,-178.711
1734296599.722,39.551,30.762,32.715,54.688,45.898
1734296599.726,55.664,35.156,30.762,98.145,243.652
1734296599.730,16.602,35.156,29.785,14.160,49.805
1734296599.734,-6.836,29.785,29.297,-49.805,-139.160
1734296599.738,28.809,29.297,33.203,30.273,0.977
1734296599.741,52.246,31.738,33.203,100.098,207.520
1734296599.745,21.973,33.691,27.344,29.785,116.211
1734296599.749,-9.766,31.738,23.926,-52.246,-108.398
1734296599.753,16.602,30.762,28.809,-2.441,-33.203
1734296599.757,46.387,27.344,29.297,88.867,201.172
1734296599.761,28.320,17.090,24.902,61.035,190.918
1734296599.765,-0.977,11.230,25.879,-30.273,-78.613
1734296599.769,2.441,22.461,25.879,-23.438,-132.812
1734296599.773,39.062,33.203,27.344,67.871,126.953
1734296599.777,48.828,33.691,34.180,87.402,202.637
1734296599.780,7.812,32.715,37.109,-6.348,-4.883
1734296599.784,-15.137,27.832,33.691,-51.758,-158.691
1734296599.788,13.672,23.438,23.926,28.809,43.457
1734296599.792,24.902,19.531,18.066,79.102,238.281
1734296599.796,-7.324,15.625,26.855,-1.465,56.641
1734296599.800,-32.227,21.973,28.320,-77.637,-152.832
1734296599.804,-0.977,29.297,26.367,-11.230,-14.648
1734296599.808,35.156,30.273,28.809,76.172,239.746
1734296599.812,11.719,30.273,34.668,26.855,153.809
1734296599.816,-14.160,27.832,42.969,-58.594,-119.141
1734296599.820,11.230,26.855,39.062,-17.090,-65.918
1734296599.823,46.387,27.344,28.320,80.078,188.965
1734296599.827,40.039,26.855,28.809,70.801,199.219
1734296599.831,15.625,24.902,35.156,-16.602,-67.383
1734296599.835,12.207,23.926,35.156,-28.809,-179.688
1734296599.839,40.039,25.879,32.715,64.941,85.449
1734296599.843,47.852,29.297,31.250,93.262,228.027
1734296599.847,14.648,32.715,35.156,2.441,17.578
1734296599.851,1.465,32.715,39.551,-41.504,-182.129
1734296599.855,30.273,32.227,33.691,38.574,5.859
1734296599.859,54.199,31.250,26.855,97.168,252.930
1734296599.862,27.344,25.391,27.344,25.391,87.891
1734296599.866,3.906,20.508,30.273,-43.945,-152.344
1734296599.870,30.762,26.855,34.180,24.902,-40.039
1734296599.874,54.199,33.203,36.133,109.863,232.910
1734296599.878,38.086,27.832,39.551,63.477,160.156
1734296599.882,6.348,26.855,42.480,-30.273,-120.605
1734296599.886,19.531,32.227,37.598,-9.766,-95.703
1734296599.890,56.641,28.320,37.109,83.496,148.438
1734296599.894,48.828,21.973,34.668,73.242,176.270
1734296599.898,17.090,18.066,33.691,-20.020,-81.055
1734296599.902,18.066,19.531,36.621,-27.832,-178.711
1734296599.905,36.133,22.461,35.156,52.734,74.707
1734296599.909,36.621,23.926,33.691,79.102,230.469
1734296599.913,3.418,26.367,34.668,2.441,40.527
1734296599.917,-28.809,23.926,36.621,-60.059,-145.996
1734296599.921,-0.488,24.902,34.668,17.090,31.250
1734296599.925,29.785,27.344,32.715,99.121,227.539
1734296599.929,-6.348,23.438,28.809,20.508,84.473
1734296599.933,-34.180,18.555,26.367,-68.359,-121.094
1734296599.937,0.977,20.020,26.367,-14.160,-37.598
1734296599.941,41.016,19.531,24.902,73.730,204.102
1734296599.944,35.156,14.160,31.738,45.410,148.926
1734296599.948,6.836,16.602,38.574,-39.551,-104.980
1734296599.952,17.090,15.137,34.668,-25.391,-96.680
1734296599.956,50.781,9.277,30.762,71.777,143.555
1734296599.960,41.504,15.625,29.297,80.078,200.684
1734296599.964,2.441,23.438,28.320,-14.648,-35.156
1734296599.968,-8.789,25.879,25.391,-47.363,-170.410
1734296599.972,26.855,29.297,22.461,41.504,48.340
1734296599.976,48.828,30.762,23.438,93.262,235.352
1734296599.980,17.090,30.273,26.855,12.207,25.879
1734296599.984,1.953,27.832,31.250,-50.293,-198.730
1734296599.987,30.762,25.391,31.738,23.926,-24.414
1734296599.991,57.617,24.902,27.832,104.980,224.121
1734296599.995,39.062,25.391,24.414,43.945,106.934
1734296599.999,5.859,25.879,18.066,-45.898,-151.855
1734296600.003,23.438,25.391,17.090,-0.488,-89.844
1734296600.007,49.316,18.555,19.043,92.285,194.336
1734296600.011,34.668,19.531,18.066,64.941,184.082
1734296600.015,1.953,27.344,20.508,-29.297,-86.914
1734296600.019,-0.488,24.902,20.508,-26.367,-143.066
1734296600.023,33.203,18.066,16.602,60.547,116.211
1734296600.027,35.156,19.531,17.578,74.707,221.191
1734296600.030,4.883,21.484,20.508,-20.020,-11.719
1734296600.034,-2.441,20.508,16.113,-62.500,-177.246
1734296600.038,26.855,20.996,14.160,24.902,36.621
1734296600.042,44.434,23.926,16.113,79.590,215.820
1734296600.046,14.160,25.391,16.602,8.301,21.484
1734296600.050,-12.695,22.461,18.555,-63.477,-171.387
1734296600.054,13.672,29.297,21.484,-6.348,-12.695
1734296600.058,44.922,30.762,23.926,79.102,216.309
1734296600.062,22.949,29.785,26.855,31.738,104.492
1734296600.066,0.488,34.180,24.414,-52.734,-141.602
1734296600.069,18.555,34.180,20.996,-18.555,-90.820
1734296600.073,44.434,35.645,21.973,69.824,177.246
1734296600.077,38.086,38.574,27.832,60.547,182.617
1734296600.081,0.000,37.598,31.250,-34.668,-77.637
1734296600.085,2.441,42.480,26.855,-41.016,-152.344
1734296600.089,43.457,43.457,20.020,53.223,80.566
1734296600.093,46.875,39.062,20.020,82.031,210.938
1734296600.097,11.230,38.086,23.926,0.000,-5.859
1734296600.101,-3.906,41.504,25.879,-48.340,-166.992
1734296600.105,34.668,41.016,26.367,38.574,42.480
1734296600.109,58.105,37.598,21.484,100.098,246.094
1734296600.112,20.508,41.504,20.020,23.438,66.895
1734296600.116,-7.324,47.852,25.879,-47.852,-166.016
1734296600.120,19.531,51.270,27.344,11.230,-39.551
1734296600.124,54.199,52.246,25.879,94.238,214.355
1734296600.128,38.086,44.922,25.391,50.293,148.438
1734296600.132,1.953,38.574,25.879,-41.992,-107.422
1734296600.136,11.230,41.504,26.855,-23.926,-118.164
1734296600.140,49.316,36.133,23.926,69.336,143.066
1734296600.144,47.363,30.762,17.578,70.801,225.098
1734296600.148,6.836,39.062,17.578,-25.879,-27.832
1734296600.151,3.906,42.480,23.438,-41.992,-164.551
1734296600.155,41.504,42.969,23.926,55.176,70.312
1734296600.159,55.664,39.551,21.973,93.750,222.168
1734296600.163,25.391,36.621,22.949,6.348,11.230
1734296600.167,10.254,36.133,23.438,-52.734,-190.918
1734296600.171,38.574,33.691,28.320,27.832,-11.230
1734296600.175,56.641,36.133,30.273,101.074,240.234
1734296600.179,28.320,40.039,29.297,42.969,82.520
1734296600.183,2.930,36.621,28.809,-39.062,-162.598
1734296600.187,23.438,22.949,24.902,13.184,-53.711
1734296600.191,47.852,22.949,22.461,105.957,208.984
1734296600.194,34.180,28.320,26.367,66.895,192.871
1734296600.198,0.000,22.949,29.785,-25.391,-81.055
1734296600.202,1.465,20.020,31.738,-13.184,-125.000
1734296600.206,40.527,20.508,32.227,78.125,107.910
1734296600.210,43.945,20.508,32.715,85.449,185.547
1734296600.214,-2.441,18.066,29.785,-9.277,-31.738
1734296600.218,-9.766,22.461,27.344,-38.086,-162.109
1734296600.222,27.344,22.949,25.879,54.688,62.500
1734296600.226,40.039,15.137,20.020,97.656,237.793
1734296600.230,5.371,10.742,16.602,12.695,34.668
1734296600.233,-16.113,9.766,18.066,-49.316,-165.527
1734296600.237,9.277,15.137,21.484,22.461,-9.277
1734296600.241,41.016,21.973,22.461,100.098,243.652
1734296600.245,25.391,21.973,22.461,43.945,113.281
1734296600.249,-6.836,20.508,24.414,-45.410,-160.645
1734296600.253,9.277,20.996,27.344,-4.883,-84.961
1734296600.257,45.898,22.949,28.809,89.844,174.316
1734296600.261,37.598,23.438,28.320,64.453,187.012
1734296600.265,4.883,20.996,27.344,-29.785,-89.844
1734296600.269,13.672,22.461,23.926,-23.438,-148.438
1734296600.273,51.758,23.438,22.949,71.289,109.375
1734296600.276,57.129,21.973,25.391,88.867,193.848
1734296600.280,18.066,28.320,30.273,2.930,-19.531
1734296600.284,3.906,35.645,31.738,-38.574,-164.551
1734296600.288,36.621,33.691,25.879,42.969,19.043
1734296600.292,53.223,30.273,24.902,101.562,206.055
1734296600.296,22.949,27.832,28.320,26.367,64.941
1734296600.300,-2.930,25.391,30.273,-44.922,-143.555
1734296600.304,18.066,26.367,23.926,17.578,-26.855
1734296600.308,42.969,24.902,18.555,93.750,218.262
1734296600.312,19.043,26.855,22.461,42.969,129.395
1734296600.315,-10.254,36.621,25.391,-47.852,-124.023
1734296600.319,2.930,36.621,24.902,-20.996,-98.633
1734296600.323,39.551,27.832,25.879,73.242,150.879
1734296600.327,31.250,24.414,25.879,65.918,201.660
1734296600.331,-7.324,28.809,24.902,-29.297,-44.922
1734296600.335,0.488,32.227,26.367,-36.621,-158.203
1734296600.339,40.527,30.273,24.414,60.059,83.008
1734296600.343,50.781,28.809,21.484,86.914,240.723
1734296600.347,20.020,26.367,21.484,1.953,1.465
1734296600.351,0.000,19.531,20.996,-49.316,-192.383
1734296600.355,29.297,19.531,23.926,38.574,16.113
1734296600.358,51.270,21.973,28.320,104.980,223.633
1734296600.362,16.602,16.602,26.855,25.391,77.148
1734296600.366,-11.719,17.090,24.902,-47.363,-161.133
1734296600.370,18.066,23.438,24.902,15.625,-53.223
1734296600.374,53.711,27.344,22.949,102.051,203.613
1734296600.378,34.180,29.297,16.113,57.617,132.324
1734296600.382,-3.418,30.762,15.137,-36.621,-105.469
1734296600.386,9.766,31.738,22.949,-12.207,-105.469
1734296600.390,47.363,34.668,28.809,83.008,146.484
1734296600.394,38.574,33.203,25.879,77.148,182.617
1734296600.398,-3.418,26.367,16.602,-21.973,-77.637
1734296600.401,-10.742,23.438,12.207,-47.852,-176.270
1734296600.405,24.414,19.531,13.184,44.434,49.316
1734296600.409,39.551,19.531,14.648,87.402,229.980
1734296600.413,2.930,26.367,13.184,2.930,20.996
1734296600.417,-15.137,29.297,12.207,-59.570,-173.828
1734296600.421,18.555,28.320,13.184,17.090,6.348
1734296600.425,46.387,27.344,11.719,91.797,234.375
1734296600.429,20.508,29.297,16.602,23.438,109.375
1734296600.433,-7.812,26.855,18.555,-54.199,-126.953
1734296600.437,15.625,26.855,14.648,-4.395,-39.551
1734296600.440,46.387,30.273,15.137,83.008,191.406
1734296600.444,41.016,25.879,15.625,58.105,135.254
1734296600.448,5.371,25.879,17.090,-34.180,-118.164
1734296600.452,8.301,23.926,18.066,-21.973,-145.508
1734296600.456,52.734,20.508,16.602,74.707,133.301
1734296600.460,52.734,28.320,19.531,84.473,230.957
1734296600.464,16.113,38.086,23.926,-5.859,-32.715
1734296600.468,11.230,39.062,29.785,-37.109,-169.434
1734296600.472,39.062,37.109,24.414,45.410,57.129
1734296600.476,58.105,37.109,17.578,91.309,247.559
1734296600.480,30.762,33.203,20.508,19.043,53.711
1734296600.483,3.418,28.809,23.438,-40.527,-183.105
1734296600.487,35.156,29.297,29.297,29.785,-11.230
1734296600.491,66.895,31.738,31.250,107.422,212.891
1734296600.495,38.086,30.762,29.785,41.504,111.816
1734296600.499,1.953,26.367,32.715,-52.734,-132.324
1734296600.503,20.508,22.949,30.273,-5.371,-94.727
1734296600.507,53.223,20.508,26.367,91.797,164.062
1734296600.511,40.527,20.508,26.367,66.406,189.453
1734296600.515,6.348,20.508,26.855,-33.691,-49.805
1734296600.519,2.930,19.043,30.762,-30.762,-144.531
1734296600.522,35.645,16.602,32.715,68.359,100.586
1734296600.526,41.016,20.508,36.133,86.426,222.656
1734296600.530,4.883,26.855,37.109,-4.395,-10.742
1734296600.534,-7.324,27.344,32.227,-47.363,-171.387
1734296600.538,18.066,22.461,26.855,37.598,38.574
1734296600.542,33.691,17.578,24.414,96.191,223.633
1734296600.546,5.859,15.137,25.879,17.090,28.320
1734296600.550,-9.766,17.090,27.344,-52.246,-191.406
1734296600.554,17.578,18.066,25.879,10.254,-36.621
1734296600.558,39.062,19.531,23.926,93.750,212.402
1734296600.562,22.461,21.484,25.879,50.293,130.371
1734296600.565,-11.230,21.973,32.227,-44.434,-126.465
1734296600.569,8.301,27.344,30.762,-13.672,-100.098
1734296600.573,48.828,28.809,25.391,81.055,152.344
1734296600.577,43.945,23.926,26.367,70.312,180.176
1734296600.581,15.137,23.438,22.949,-14.160,-74.219
1734296600.585,10.742,25.391,21.973,-27.832,-166.016
1734296600.589,44.434,28.809,24.414,65.918,96.191
1734296600.593,58.594,29.297,24.414,101.074,231.445
1734296600.597,26.367,30.762,23.438,10.254,-8.789
1734296600.601,11.719,32.715,22.461,-42.969,-172.363
1734296600.604,42.969,29.785,23.438,39.062,16.113
1734296600.608,61.035,29.297,29.297,104.004,219.238
1734296600.612,32.715,28.809,34.180,26.367,65.918
1734296600.616,20.020,27.832,24.414,-40.039,-167.480
1734296600.620,34.180,24.414,27.344,24.902,-38.086
1734296600.624,36.133,20.508,37.598,85.449,191.406
1734296600.628,26.367,20.020,36.621,47.363,145.020
1734296600.632,8.789,18.555,36.133,-21.484,-110.840
1734296600.636,6.348,20.020,35.156,-10.742,-120.605
1734296600.640,35.156,23.926,34.180,71.777,129.883
1734296600.644,38.086,26.855,35.156,72.754,166.016
1734296600.647,3.906,31.738,33.691,-23.438,-67.871
1734296600.651,0.977,27.344,33.691,-47.363,-179.199
1734296600.655,30.273,20.996,36.133,51.270,52.246
1734296600.659,41.992,21.973,33.691,96.680,223.145
1734296600.663,5.371,21.973,27.832,1.465,19.531
1734296600.667,-18.555,19.043,26.855,-62.012,-175.781
1734296600.671,24.414,20.508,25.879,19.043,-1.465
1734296600.675,58.105,20.996,30.273,95.215,208.496
1734296600.679,30.273,16.602,37.109,29.785,77.148
1734296600.683,1.465,17.578,39.551,-52.734,-155.762
1734296600.686,23.438,26.367,38.574,0.488,-71.777
1734296600.690,55.664,32.715,33.691,84.473,190.430
1734296600.694,43.945,34.180,30.273,53.711,162.109
1734296600.698,9.766,33.691,33.203,-33.691,-116.211
1734296600.702,12.695,30.273,36.133,-22.949,-154.785
1734296600.706,46.875,33.691,34.180,74.707,124.023
1734296600.710,53.711,33.691,30.762,83.984,224.121
1734296600.714,13.672,28.809,28.320,-7.812,-9.766
1734296600.718,0.977,35.645,28.320,-35.156,-159.180
1734296600.722,41.016,41.992,31.738,56.641,37.598
1734296600.726,57.617,39.551,28.809,100.098,249.512
1734296600.729,24.414,38.086,25.879,21.973,60.547
1734296600.733,-4.395,33.691,31.250,-42.969,-208.984
1734296600.737,20.020,30.762,26.855,20.996,-51.270
1734296600.741,54.688,33.691,24.414,104.492,215.332
1734296600.745,33.691,35.645,29.785,45.410,116.699
1734296600.749,-1.465,36.133,25.879,-46.387,-135.742
1734296600.753,14.648,36.133,24.414,-8.301,-76.660
1734296600.757,51.758,39.062,27.832,80.566,190.918
1734296600.761,50.293,40.527,25.879,62.500,178.223
1734296600.765,16.113,33.691,22.949,-35.156,-59.082
1734296600.769,20.508,34.180,24.902,-32.227,-121.094
1734296600.772,51.758,37.598,25.391,64.453,72.754
1734296600.776,49.805,33.203,24.414,80.078,187.500
1734296600.780,9.766,25.391,31.250,-6.836,-9.766
1734296600.784,-8.789,22.461,34.668,-44.434,-161.133
1734296600.788,19.043,21.484,34.180,39.551,23.438
1734296600.792,38.574,19.531,30.273,98.633,220.703
1734296600.796,12.207,19.531,28.320,24.414,64.453
1734296600.800,-12.695,21.484,30.273,-46.387,-150.391
1734296600.804,23.438,21.484,26.855,19.043,-26.855
1734296600.808,58.105,23.438,23.438,99.609,203.613
1734296600.811,34.668,24.902,24.902,51.270,120.605
1734296600.815,7.812,25.391,27.832,-37.109,-126.465
1734296600.819,19.531,25.391,29.785,-11.230,-96.680
1734296600.823,54.688,27.832,33.203,81.543,172.852
1734296600.827,55.176,30.273,36.133,76.172,192.871
1734296600.831,8.301,30.273,33.691,-19.043,-75.195
1734296600.835,1.953,29.297,28.809,-32.715,-130.859
1734296600.839,42.480,27.832,27.832,59.570,118.164
1734296600.843,49.316,27.344,34.180,86.426,249.512
1734296600.847,11.230,29.297,33.203,-2.930,5.859
1734296600.851,-5.371,38.574,27.832,-54.688,-191.895
1734296600.854,30.762,41.992,30.273,23.438,2.930
1734296600.858,53.711,38.574,34.180,95.215,238.770
1734296600.862,24.902,39.551,32.227,24.414,66.406
1734296600.866,-0.977,38.574,31.738,-54.688,-197.266
1734296600.870,23.438,38.574,31.250,4.883,-63.965
1734296600.874,50.781,36.621,29.297,89.844,195.801
1734296600.878,37.109,31.250,30.273,53.223,149.414
1734296600.882,3.906,33.203,33.203,-40.039,-118.652
1734296600.886,9.766,29.297,30.762,-26.367,-147.949
1734296600.890,47.363,24.902,26.855,71.777,144.043
1734296600.893,47.363,35.645,29.785,83.008,226.562
1734296600.897,10.254,41.016,34.180,-5.371,-30.273
1734296600.901,5.371,38.574,35.156,-29.785,-170.410
1734296600.905,41.016,41.504,34.668,57.129,36.621
1734296600.909,51.270,41.504,36.621,102.539,191.895
1734296600.913,19.043,40.527,39.062,21.484,9.766
1734296600.917,-3.418,41.016,33.203,-41.504,-182.617
1734296600.921,23.438,33.203,29.297,26.367,-27.832
1734296600.925,49.805,33.203,29.785,95.215,212.402
1734296600.929,21.484,37.598,32.227,33.203,99.121
1734296600.933,-4.883,33.691,35.645,-44.434,-146.484
1734296600.936,16.113,36.133,33.203,5.371,-58.105
1734296600.940,50.781,39.551,32.715,93.750,204.102
1734296600.944,46.875,39.062,31.250,67.383,167.480
1734296600.948,13.184,39.062,27.832,-23.438,-119.629
1734296600.952,11.230,38.574,25.391,-20.020,-152.832
1734296600.956,46.387,38.086,29.297,75.195,124.023
1734296600.960,53.223,35.645,34.180,89.844,214.355
1734296600.964,13.672,33.691,29.297,-7.812,-21.484
1734296600.968,5.371,38.086,29.297,-41.504,-146.484
1734296600.972,38.574,40.527,31.250,46.387,75.684
1734296600.975,54.688,38.086,29.297,98.145,230.957
1734296600.979,24.902,34.668,29.785,18.066,44.434
1734296600.983,0.000,37.598,28.809,-53.711,-185.547
1734296600.987,28.809,38.574,25.879,17.090,-36.621
1734296600.991,60.059,36.621,23.926,99.121,230.469
1734296600.995,34.668,34.180,24.414,37.598,115.723
1734296600.999,3.906,32.715,28.809,-48.828,-155.273
1734296601.003,29.785,32.227,30.762,-4.883,-123.535
1734296601.007,64.941,34.180,30.762,86.426,151.855
1734296601.011,58.594,34.180,29.785,67.871,182.129
1734296601.015,23.438,30.273,26.855,-23.926,-87.402
1734296601.018,18.066,32.227,28.320,-29.785,-137.207
1734296601.022,57.617,34.668,25.391,72.754,113.770
1734296601.026,68.359,40.039,23.926,103.516,219.727
1734296601.030,29.785,38.574,26.367,5.859,-5.859
1734296601.034,13.184,32.715,29.297,-39.551,-195.801
1734296601.038,38.086,30.273,33.691,39.062,15.625
1734296601.042,56.641,27.344,35.156,102.051,229.004
1734296601.046,24.902,27.832,29.785,32.227,62.988
1734296601.050,-5.371,24.902,30.273,-40.527,-163.574
1734296601.054,23.438,24.414,34.180,18.555,-58.105
1734296601.057,52.734,30.762,32.715,97.168,184.082
1734296601.061,31.250,33.203,29.785,49.805,120.605
1734296601.065,4.883,34.180,27.832,-40.527,-127.930
1734296601.069,15.625,29.297,33.691,-9.277,-105.469
1734296601.073,43.945,27.832,36.621,81.055,148.438
1734296601.077,36.133,25.879,29.297,74.707,202.148
1734296601.081,-6.836,18.555,26.855,-12.695,-49.805
1734296601.085,-10.254,25.391,25.391,-37.598,-165.527
1734296601.089,26.855,33.691,23.438,53.711,57.129
1734296601.093,36.133,35.156,24.414,94.727,225.098
1734296601.097,1.465,32.227,25.391,3.418,40.527
1734296601.100,-14.160,26.855,23.438,-47.363,-168.457
1734296601.104,24.414,28.809,20.996,34.668,0.977
1734296601.108,58.594,36.133,27.344,106.934,201.660
1734296601.112,31.250,31.250,34.180,40.527,71.777
1734296601.116,5.371,27.344,27.832,-43.457,-161.621
1734296601.120,33.691,27.344,21.973,9.766,-72.266
1734296601.124,73.730,15.625,21.973,103.516,185.547
1734296601.128,61.523,17.090,24.902,70.801,132.324
1734296601.132,19.043,39.062,24.902,-31.250,-118.164
1734296601.136,23.438,51.270,23.438,-18.066,-122.559
1734296601.140,57.617,44.434,25.391,82.031,159.668
1734296601.143,53.711,35.645,31.738,86.426,220.703
1734296601.147,7.812,33.691,35.156,-10.254,-60.547
1734296601.151,-11.719,30.273,27.344,-45.898,-176.758
1734296601.155,28.809,27.832,24.902,45.898,49.805
1734296601.159,53.223,24.414,27.344,104.004,217.285
1734296601.163,12.695,11.719,28.320,21.484,9.277
1734296601.167,-14.160,7.812,27.344,-48.340,-211.914
1734296601.171,18.555,13.184,25.879,21.484,-18.066
1734296601.175,45.898,19.043,28.320,97.656,224.609
1734296601.179,20.508,20.020,34.180,44.434,112.793
1734296601.182,-7.812,18.066,39.062,-39.062,-152.832
1734296601.186,10.254,24.902,36.133,-1.465,-97.656
1734296601.190,38.574,32.715,31.738,86.914,188.477
1734296601.194,25.391,29.297,28.809,58.105,188.965
1734296601.198,-10.742,15.625,25.391,-38.086,-83.496
1734296601.202,0.977,20.996,24.902,-35.156,-145.996
1734296601.206,36.621,34.180,21.484,54.199,96.191
1734296601.210,36.133,36.133,20.508,67.871,215.820
1734296601.214,-1.953,36.133,20.020,-24.902,-16.602
1734296601.218,-15.137,34.180,17.578,-62.012,-174.805
1734296601.222,27.344,34.668,18.555,29.785,28.320
1734296601.225,50.781,30.762,20.996,87.891,216.309
1734296601.229,20.996,28.320,20.996,4.883,47.363
1734296601.233,2.441,33.691,18.555,-62.012,-179.688
1734296601.237,30.273,35.645,20.020,10.254,-40.527
1734296601.241,53.223,36.133,22.461,90.332,187.500
1734296601.245,25.879,36.133,22.461,37.109,84.961
1734296601.249,-0.977,33.691,22.949,-52.246,-155.762
1734296601.253,20.996,32.227,21.484,-15.137,-102.539
1734296601.257,53.711,34.180,16.602,81.543,159.180
1734296601.261,46.387,34.180,15.137,68.359,172.852
1734296601.264,6.348,26.367,15.137,-28.809,-92.773
1734296601.268,5.371,24.414,16.602,-39.062,-150.391
1734296601.272,45.898,19.531,21.484,62.500,127.441
1734296601.276,48.828,19.531,22.949,91.797,242.188
1734296601.280,10.254,29.785,20.996,-3.418,-5.859
1734296601.284,-1.465,33.203,23.438,-47.852,-178.711
1734296601.288,33.691,32.227,28.320,36.133,14.160
1734296601.292,52.246,32.715,33.203,105.469,211.914
1734296601.296,16.602,36.621,34.180,35.645,39.062
1734296601.300,-8.301,35.645,26.855,-43.945,-188.965
1734296601.304,17.578,30.762,18.066,17.578,-33.691
1734296601.307,48.828,33.691,19.043,101.562,210.938
1734296601.311,32.227,35.156,25.879,57.129,132.324
1734296601.315,0.000,29.297,26.367,-36.621,-121.094
1734296601.319,14.160,29.785,26.367,-16.113,-114.746
1734296601.323,48.340,35.645,30.273,79.590,152.344
1734296601.327,45.410,37.598,27.832,77.637,208.984
1734296601.331,9.766,34.668,26.367,-16.113,-60.059
1734296601.335,-0.488,30.762,28.320,-31.250,-176.270
1734296601.339,41.504,28.320,26.367,65.430,77.637
1734296601.343,57.129,26.367,25.879,100.586,225.586
1734296601.346,20.020,24.414,25.391,9.277,-2.441
1734296601.350,1.465,24.902,26.367,-48.340,-203.613
1734296601.354,24.414,21.973,21.484,25.391,-8.301
1734296601.358,43.457,23.926,19.043,89.844,220.215
1734296601.362,15.137,28.809,24.414,28.320,100.098
1734296601.366,-13.184,31.738,23.926,-51.270,-136.719
1734296601.370,9.766,32.715,28.809,3.418,-81.055
1734296601.374,44.434,28.809,32.715,93.262,176.758
1734296601.378,27.832,20.020,29.297,51.270,157.715
1734296601.382,-6.836,21.973,28.320,-35.645,-103.516
1734296601.386,0.488,31.738,27.344,-16.113,-117.676
1734296601.389,37.109,28.320,26.367,76.660,121.582
1734296601.393,40.039,24.414,27.344,81.055,187.012
1734296601.397,0.000,19.531,29.297,-13.672,-46.387
1734296601.401,-6.836,23.438,27.344,-36.621,-178.223
1734296601.405,36.621,32.715,27.832,56.641,48.340
1734296601.409,57.617,35.645,33.691,104.004,229.980
1734296601.413,29.297,30.762,37.109,21.484,15.137
1734296601.417,5.859,23.438,38.574,-40.039,-176.758
1734296601.421,32.227,28.809,35.645,34.180,24.414
1734296601.425,59.570,30.273,29.785,106.445,223.145
1734296601.428,35.156,31.250,29.297,41.504,93.750
1734296601.432,6.348,31.250,30.762,-42.480,-133.789
1734296601.436,28.320,23.438,27.344,3.906,-64.453
1734296601.440,61.035,20.020,26.855,96.191,187.988
1734296601.444,46.387,20.996,27.832,69.824,142.578
1734296601.448,5.371,21.973,28.320,-30.762,-104.492
1734296601.452,7.812,19.531,30.762,-26.855,-141.602
1734296601.456,48.340,17.578,28.809,70.801,116.211
1734296601.460,46.875,21.973,28.320,81.055,237.305
1734296601.464,7.324,23.438,31.738,-12.695,-21.973
1734296601.468,-3.906,23.438,31.250,-46.875,-194.824
1734296601.471,30.762,25.879,30.273,41.016,38.086
1734296601.475,51.270,26.855,30.762,100.098,245.117
1734296601.479,20.508,28.320,31.738,22.949,78.125
1734296601.483,-0.977,29.297,33.203,-50.781,-166.016
1734296601.487,27.832,28.320,35.156,18.555,-26.367
1734296601.491,60.059,29.297,32.227,98.633,212.891
1734296601.495,32.227,33.203,29.297,51.270,102.051
1734296601.499,-3.906,34.668,36.621,-34.180,-140.137
1734296601.503,14.648,35.645,36.621,-8.789,-85.449
1734296601.507,48.340,40.039,31.250,83.496,183.105
1734296601.511,38.086,37.598,28.809,66.895,166.992
1734296601.514,-1.953,32.227,28.809,-28.320,-95.215
1734296601.518,1.465,30.273,28.320,-33.691,-141.602
1734296601.522,41.992,29.297,25.391,54.688,93.750
1734296601.526,50.293,31.738,26.367,80.566,227.051
1734296601.530,13.184,36.621,27.344,-8.789,11.230
1734296601.534,-9.766,33.691,26.367,-57.129,-166.016
1734296601.538,16.602,25.879,31.250,22.461,38.574
1734296601.542,41.504,30.762,35.156,84.473,234.375
1734296601.546,10.742,24.414,30.273,12.695,56.641
1734296601.550,-9.277,18.066,23.926,-54.688,-173.828
1734296601.553,27.832,30.762,20.996,14.648,-62.988
1734296601.557,40.527,34.180,27.344,80.566,200.684
1734296601.561,10.742,30.273,33.203,27.832,134.766
1734296601.565,-7.812,24.414,33.691,-40.527,-115.723
1734296601.569,5.371,22.461,31.250,-7.324,-87.891
1734296601.573,29.785,27.832,27.344,76.172,166.992
1734296601.577,23.926,27.344,29.785,62.988,189.941
1734296601.581,-10.254,22.461,25.879,-31.250,-86.426
1734296601.585,-13.672,14.160,23.926,-42.480,-170.410
1734296601.589,24.414,11.230,25.391,50.293,68.848
1734296601.593,41.992,13.184,27.344,91.309,189.941
1734296601.596,7.324,12.207,29.297,7.324,-3.906
1734296601.600,-11.719,13.672,28.320,-52.246,-160.645
1734296601.604,29.297,21.973,26.855,33.203,14.648
1734296601.608,56.641,24.414,23.438,104.004,236.328
1734296601.612,30.273,25.391,24.414,33.691,105.957
1734296601.616,0.488,26.855,27.832,-50.781,-161.621
1734296601.620,18.066,24.902,29.297,2.441,-62.988
1734296601.624,56.152,22.949,25.879,95.215,208.984
1734296601.628,48.828,22.949,21.973,55.176,165.527
1734296601.632,12.695,23.926,25.391,-38.086,-93.262
1734296601.635,22.461,25.879,28.809,-20.508,-116.211
1734296601.639,59.570,28.320,28.809,78.125,141.602
1734296601.643,58.594,27.344,26.855,87.891,203.613
1734296601.647,16.113,31.738,27.344,-3.418,-35.156
1734296601.651,5.859,36.621,32.715,-23.926,-147.949
1734296601.655,41.992,38.574,32.715,66.406,83.008
1734296601.659,54.688,37.598,30.273,106.445,231.934
1734296601.663,18.066,32.715,31.738,20.996,21.484
1734296601.667,-4.883,22.949,30.273,-42.480,-170.410
1734296601.671,28.809,18.066,29.297,27.832,-26.367
1734296601.675,60.059,24.414,27.832,99.609,193.359
1734296601.678,31.250,27.344,25.391,34.668,98.633
1734296601.682,-6.836,26.367,26.855,-49.316,-141.113
1734296601.686,15.625,24.902,26.855,1.953,-90.332
1734296601.690,47.363,29.785,24.414,88.867,169.922
1734296601.694,34.180,37.109,28.809,57.129,164.062
1734296601.698,1.465,36.621,33.691,-31.250,-99.609
1734296601.702,7.324,35.156,31.738,-26.855,-122.070
1734296601.706,45.898,34.668,29.785,63.965,135.254
1734296601.710,48.828,29.297,33.691,81.055,217.773
1734296601.714,8.301,37.109,35.645,-18.066,-12.695
1734296601.717,-12.695,46.387,26.855,-58.594,-158.691
1734296601.721,17.090,35.156,24.414,32.715,53.711
1734296601.725,24.414,48.340,49.316,74.707,245.605
1734296601.729,0.488,71.289,53.711,-0.488,62.012
1734296601.733,-16.113,56.641,30.762,-68.848,-157.227
1734296601.737,-3.418,86.914,40.039,-12.207,-0.488
1734296601.741,3.418,108.398,63.965,54.199,244.629
1734296601.745,-39.062,84.961,76.660,-21.484,130.371
1734296601.749,-73.242,108.887,97.168,-112.305,-128.418
1734296601.753,-74.707,135.254,112.305,-95.215,-97.168
1734296601.757,-66.895,125.977,87.402,-33.203,177.734
1734296601.760,-104.980,128.906,97.656,-70.801,197.754
1734296601.764,-160.156,142.090,112.793,-187.500,-103.516
1734296601.768,-170.410,153.320,117.188,-211.426,-169.434
1734296601.772,-152.832,167.480,129.883,-132.324,98.633
1734296601.776,-144.043,175.293,134.277,-107.910,235.352
1734296601.780,-169.922,159.180,139.160,-195.312,9.277
1734296601.784,-197.266,135.742,138.672,-246.582,-169.922
1734296601.788,-160.156,133.301,134.277,-153.320,48.340
1734296601.792,-110.840,121.094,139.160,-70.801,249.023
1734296601.796,-136.230,126.465,136.230,-135.254,76.172
1734296601.800,-156.738,170.410,124.512,-208.008,-160.156
1734296601.803,-105.957,168.945,120.117,-133.301,-57.617
1734296601.807,-66.895,135.742,109.863,-36.621,193.848
1734296601.811,-79.102,130.371,96.680,-74.219,131.348
1734296601.815,-88.379,136.230,88.867,-140.137,-125.977
1734296601.819,-56.152,115.234,70.801,-90.820,-109.375
1734296601.823,-8.301,79.102,47.852,16.113,145.996
1734296601.827,9.277,62.988,41.992,22.949,188.965
1734296601.831,-2.930,24.414,36.621,-46.387,-65.430
1734296601.835,-1.465,21.973,21.484,-41.504,-169.434
1734296601.839,41.504,66.406,12.695,62.500,94.727
1734296601.842,71.777,67.871,2.930,112.793,240.234
1734296601.846,52.734,14.160,-5.371,37.598,17.090
1734296601.850,43.945,-17.090,-5.371,-9.277,-175.293
1734296601.854,79.102,8.301,-13.672,77.148,-2.930
1734296601.858,115.723,9.766,-21.484,146.484,202.148
1734296601.862,99.609,-7.324,-23.926,86.914,57.617
1734296601.866,74.219,-18.066,-25.391,21.484,-153.320
1734296601.870,100.098,-32.715,-25.879,82.031,-37.598
1734296601.874,134.766,-38.086,-33.691,173.828,198.730
1734296601.878,126.465,-25.879,-37.109,135.742,121.094
1734296601.882,92.773,-21.973,-41.016,50.781,-126.465
1734296601.885,103.516,-21.484,-44.434,71.777,-108.887
1734296601.889,135.254,-19.531,-38.086,159.668,167.480
1734296601.893,137.207,-20.020,-25.391,170.410,231.445
1734296601.897,107.422,-30.273,-20.508,77.148,-48.340
1734296601.901,97.168,-28.320,-27.832,45.898,-178.223
1734296601.905,135.254,-22.949,-32.715,137.207,75.684
1734296601.909,146.973,-26.367,-39.062,180.664,238.770
1734296601.913,108.398,-20.020,-37.109,94.238,23.438
1734296601.917,80.078,-17.090,-30.762,24.414,-184.570
1734296601.921,108.398,-20.508,-34.180,92.773,-7.324
1734296601.924,135.742,-24.414,-37.109,166.016,237.793
1734296601.928,109.863,-24.414,-33.203,106.934,102.051
1734296601.932,80.078,-22.949,-33.691,30.762,-166.016
1734296601.936,91.309,-25.391,-28.320,78.613,-79.102
1734296601.940,118.652,-28.320,-18.555,167.969,207.031
1734296601.944,108.398,-20.020,-12.695,136.719,168.945
1734296601.948,74.219,-12.695,-7.812,47.363,-82.031
1734296601.952,73.730,-12.695,-8.301,55.664,-122.559
1734296601.956,100.586,-12.695,-12.207,142.578,102.051
1734296601.960,103.516,-17.578,-10.254,154.297,217.285
1734296601.964,67.383,-20.996,-5.859,62.500,-3.418
1734296601.967,55.664,-2.930,-0.488,27.832,-174.316
1734296601.971,88.867,7.324,-0.977,109.863,45.898
1734296601.975,108.887,4.395,-3.418,159.180,235.840
1734296601.979,81.055,8.789,1.465,82.520,53.223
1734296601.983,54.199,9.766,2.441,8.301,-161.133
1734296601.987,81.543,8.789,-0.488,72.266,-15.137
1734296601.991,110.352,1.465,-0.977,150.391,208.496
1734296601.995,86.426,-2.441,1.465,90.820,105.957
1734296601.999,52.246,9.277,0.977,2.441,-143.066
1734296602.003,63.965,15.137,3.418,38.574,-86.914
1734296602.006,93.262,9.766,7.324,129.395,155.762
1734296602.010,75.195,7.324,8.789,109.375,156.738
1734296602.014,35.156,9.277,10.742,11.719,-87.402
1734296602.018,30.273,6.836,7.812,3.418,-139.160
1734296602.022,61.523,5.371,0.977,91.309,114.746
1734296602.026,70.801,7.324,3.906,113.770,207.520
1734296602.030,33.203,8.301,11.230,21.973,-2.930
1734296602.034,16.602,5.371,13.672,-19.531,-145.996
1734296602.038,48.340,6.348,12.695,66.895,57.129
1734296602.042,75.684,9.277,13.184,124.512,258.789
1734296602.046,51.758,8.301,19.043,49.805,70.312
1734296602.049,23.926,5.371,25.879,-26.855,-178.711
1734296602.053,45.410,12.207,20.996,36.133,-39.551
1734296602.057,74.219,15.625,14.648,119.629,241.699
1734296602.061,55.664,15.625,20.508,70.801,141.602
1734296602.065,17.090,19.043,20.508,-19.531,-136.230
1734296602.069,30.762,15.625,15.625,5.859,-87.891
1734296602.073,66.895,11.230,20.020,100.098,169.434
1734296602.077,57.617,13.672,23.926,93.262,193.848
1734296602.081,16.602,26.855,22.949,-4.883,-67.383
1734296602.085,10.254,36.133,22.461,-29.297,-153.809
1734296602.088,42.969,32.227,24.414,62.988,85.938
1734296602.092,46.875,34.180,24.414,95.703,219.727
1734296602.096,13.672,31.738,24.414,0.000,8.301
1734296602.100,1.465,9.277,23.926,-46.875,-181.152
1734296602.104,28.809,13.672,19.531,33.203,-7.324
1734296602.108,53.711,36.133,18.066,97.168,225.586
1734296602.112,29.297,39.062,24.414,37.598,100.098
1734296602.116,-2.930,37.598,30.762,-35.156,-142.090
1734296602.120,21.484,38.086,26.855,15.137,-41.992
1734296602.124,60.059,36.133,23.926,101.074,219.727
1734296602.128,52.246,36.133,28.320,71.289,154.297
1734296602.131,15.625,43.457,23.926,-21.973,-127.441
1734296602.135,24.414,53.223,22.461,-10.742,-137.695
1734296602.139,62.012,49.805,26.367,84.961,102.051
1734296602.143,54.199,44.922,24.902,84.961,170.898
1734296602.147,14.160,54.199,28.809,-8.789,-67.383
1734296602.151,9.766,56.641,32.715,-29.297,-185.059
1734296602.155,45.410,48.828,36.133,59.570,64.453
1734296602.159,52.246,41.504,37.109,104.980,211.914
1734296602.163,9.766,33.691,36.133,19.043,1.465
1734296602.167,-14.648,38.086,33.691,-50.781,-191.406
1734296602.171,12.207,44.922,33.203,19.043,-8.789
1734296602.174,42.969,38.086,39.062,93.262,210.938
1734296602.178,21.484,37.109,41.016,35.645,69.336
1734296602.182,-14.648,42.480,38.086,-44.922,-169.922
1734296602.186,8.301,46.875,36.621,-0.488,-72.754
1734296602.190,42.480,49.805,33.203,91.309,206.543
1734296602.194,25.391,45.898,33.691,60.547,197.754
1734296602.198,-7.324,42.969,30.762,-40.039,-92.285
1734296602.202,0.977,43.457,24.414,-29.297,-135.742
1734296602.206,32.715,41.016,24.414,68.848,136.719
1734296602.210,36.133,33.203,23.438,80.078,206.543
1734296602.213,5.859,30.273,28.809,-12.207,-23.438
1734296602.217,-4.395,35.156,32.715,-44.922,-158.691
1734296602.221,27.344,38.574,25.391,41.016,56.152
1734296602.225,42.969,42.969,20.020,92.285,243.652
1734296602.229,11.719,41.016,25.391,13.672,68.359
1734296602.233,-6.348,36.133,29.785,-60.059,-162.109
1734296602.237,23.438,31.738,25.879,5.371,-14.648
1734296602.241,53.223,31.738,21.484,89.844,226.562
1734296602.245,25.879,40.039,27.832,36.621,115.234
1734296602.249,-3.418,45.410,32.227,-43.945,-119.141
1734296602.253,11.719,41.992,34.180,-2.441,-70.801
1734296602.256,35.156,33.203,36.621,82.520,170.898
1734296602.260,38.086,32.227,35.645,64.453,158.691
1734296602.264,6.348,22.461,35.645,-23.438,-86.914
1734296602.268,2.441,20.996,37.598,-23.926,-139.648
1734296602.272,47.363,40.039,33.691,71.289,124.023
1734296602.276,63.477,44.434,33.691,101.562,243.652
1734296602.280,17.578,44.434,34.180,5.371,-5.859
1734296602.284,-9.277,42.480,37.598,-52.734,-146.973
1734296602.288,32.715,39.062,45.898,37.109,59.082
1734296602.292,55.176,37.109,40.527,94.727,247.070
1734296602.295,11.719,33.691,29.297,10.742,59.570
1734296602.299,-15.137,31.738,24.414,-58.594,-170.898
1734296602.303,19.043,32.227,25.391,8.301,-24.414
1734296602.307,46.875,28.320,25.391,90.820,225.098
1734296602.311,22.949,22.949,24.414,37.109,141.113
1734296602.315,-6.836,22.461,28.809,-55.664,-128.906
1734296602.319,4.883,25.391,28.809,-21.973,-116.211
1734296602.323,38.086,22.949,29.297,70.801,150.391
1734296602.327,32.715,16.113,31.250,54.688,172.363
1734296602.331,-9.277,25.879,29.785,-40.039,-89.355
1734296602.335,-7.812,39.551,22.949,-48.828,-182.129
1734296602.338,32.715,41.016,15.625,45.410,83.984
1734296602.342,45.898,41.016,16.113,79.102,242.676
1734296602.346,12.207,39.551,21.973,-2.930,25.391
1734296602.350,-3.418,30.762,29.297,-46.875,-165.039
1734296602.354,30.762,23.926,34.668,34.668,7.812
1734296602.358,54.688,25.879,33.691,100.586,242.676
1734296602.362,33.691,27.832,34.668,37.598,93.750
1734296602.366,4.395,22.461,33.203,-34.180,-151.367
1734296602.370,23.438,14.160,26.855,11.719,-35.156
1734296602.374,56.641,15.625,24.414,89.355,217.773
1734296602.377,34.668,24.902,27.344,53.711,145.020
1734296602.381,-2.930,29.297,31.250,-34.180,-112.793
1734296602.385,8.789,34.180,28.809,-17.578,-111.816
1734296602.389,44.922,35.645,27.344,72.754,121.094
1734296602.393,42.480,29.785,32.227,75.195,182.129
1734296602.397,7.324,29.785,36.133,-15.625,-38.574
1734296602.401,0.000,32.227,32.715,-39.062,-162.109
1734296602.405,29.785,22.949,26.855,47.363,59.570
1734296602.409,44.922,21.973,27.344,91.797,221.680
1734296602.413,11.230,29.785,29.297,7.812,24.902
1734296602.417,-11.230,25.391,26.855,-56.152,-173.828
1734296602.420,24.902,17.090,28.320,20.020,-34.180
1734296602.424,50.293,23.926,27.344,89.355,199.707
1734296602.428,30.762,35.156,30.762,26.367,97.656
1734296602.432,3.906,31.250,37.109,-45.898,-146.484
1734296602.436,21.973,24.414,35.156,10.254,-66.895
1734296602.440,56.152,25.391,29.785,91.797,181.152
1734296602.444,42.969,24.902,24.902,56.152,141.602
1734296602.448,3.418,20.996,27.344,-34.668,-123.535
1734296602.452,7.324,20.996,28.809,-21.484,-134.277
1734296602.456,44.922,19.043,33.691,80.078,123.047
1734296602.460,35.645,12.695,33.203,84.961,205.078
1734296602.463,-3.906,15.137,31.738,-11.719,-22.949
1734296602.467,-11.230,18.066,34.180,-37.598,-173.828
1734296602.471,18.066,13.184,27.344,47.852,29.297
1734296602.475,31.738,13.184,22.949,95.703,223.145
1734296602.479,3.418,17.578,24.902,20.508,44.922
1734296602.483,-17.090,18.555,26.855,-45.410,-169.922
1734296602.487,13.184,18.066,26.855,22.461,-17.090
1734296602.491,41.504,14.160,27.832,98.145,216.797
1734296602.495,20.996,13.184,29.785,38.574,117.676
1734296602.499,-3.906,5.859,35.645,-47.363,-125.000
1734296602.502,12.207,9.766,35.156,-12.695,-86.426
1734296602.506,47.363,24.902,22.949,72.754,176.758
1734296602.510,42.480,26.855,19.043,58.105,196.289
1734296602.514,7.812,26.855,26.367,-34.668,-95.703
1734296602.518,6.348,25.879,25.391,-40.039,-163.086
1734296602.522,41.504,27.832,23.926,61.523,104.004
1734296602.526,46.875,29.297,28.809,91.309,219.727
1734296602.530,10.254,32.227,33.203,6.836,-20.508
1734296602.534,0.000,31.250,34.668,-34.668,-176.758
1734296602.538,37.109,31.738,25.879,49.805,36.621
1734296602.542,59.082,41.992,20.020,103.027,225.098
1734296602.545,27.344,47.363,22.461,21.973,61.035
1734296602.549,0.977,44.434,19.531,-49.316,-157.227
1734296602.553,27.832,45.898,15.625,4.883,-43.457
1734296602.557,62.012,47.363,16.602,83.984,193.848
1734296602.561,40.527,41.504,20.996,34.668,113.770
1734296602.565,7.324,34.668,25.879,-52.246,-153.320
1734296602.569,23.438,24.414,28.809,-17.578,-152.832
1734296602.573,55.176,20.508,31.738,70.801,147.461
1734296602.577,48.828,27.832,32.715,64.941,206.055
1734296602.581,9.277,29.785,31.738,-28.809,-56.641
1734296602.584,-0.488,27.344,25.391,-50.781,-135.742
1734296602.588,38.574,26.855,19.531,51.270,87.402
1734296602.592,54.688,28.320,20.996,92.285,218.262
1734296602.596,23.926,31.738,21.484,10.254,2.930
1734296602.600,-1.465,32.227,27.832,-45.898,-175.293
1734296602.604,22.949,24.414,34.668,30.273,26.855
1734296602.608,50.781,14.648,35.156,102.051,226.074
1734296602.612,17.090,15.137,26.855,24.902,73.242
1734296602.616,-8.789,19.043,24.414,-50.293,-160.645
1734296602.620,14.648,19.531,31.250,12.207,-44.922
1734296602.624,42.480,16.602,27.832,95.703,202.637
1734296602.627,23.438,15.137,20.508,54.688,121.582
1734296602.631,-12.207,19.043,20.508,-39.551,-124.512
1734296602.635,3.418,17.578,21.973,-19.531,-131.836
1734296602.639,40.527,19.531,21.973,78.613,137.207
1734296602.643,47.852,30.762,22.461,85.449,208.008
1734296602.647,12.207,30.273,19.531,-15.137,-67.383
1734296602.651,2.930,26.855,17.090,-42.480,-154.785
1734296602.655,46.387,33.203,19.531,59.082,103.516
1734296602.659,60.547,30.762,20.996,95.215,233.398
1734296602.663,23.438,23.438,18.066,5.859,30.273
1734296602.666,0.977,26.367,16.602,-50.781,-148.438
1734296602.670,28.809,29.785,16.602,20.996,18.066
1734296602.674,59.082,31.738,17.090,93.262,228.027
1734296602.678,34.668,32.715,18.555,29.785,79.102
1734296602.682,6.836,28.809,23.438,-51.270,-145.508
1734296602.686,26.855,26.855,27.344,-0.977,-53.711
1734296602.690,61.035,26.855,24.902,89.355,195.801
1734296602.694,48.340,26.855,20.996,56.152,156.738
1734296602.698,10.254,27.344,19.043,-40.039,-106.445
1734296602.702,13.184,31.250,19.043,-31.738,-150.879
1734296602.706,43.457,29.297,23.438,64.453,93.750
1734296602.709,47.363,27.344,28.320,84.961,190.430
1734296602.713,17.090,29.785,30.762,-2.930,-8.789
1734296602.717,9.766,30.273,28.809,-38.574,-138.672
1734296602.721,44.922,31.250,24.414,49.316,32.715
1734296602.725,60.059,26.367,22.461,95.703,217.773
1734296602.729,28.809,26.855,16.602,8.301,38.086
1734296602.733,0.977,36.621,11.719,-53.223,-169.434
1734296602.737,27.832,37.598,16.113,20.508,-20.020
1734296602.741,58.105,36.133,24.902,90.820,204.590
1734296602.745,24.902,30.273,28.809,31.250,96.680
1734296602.748,-8.301,23.926,29.785,-54.199,-143.555
1734296602.752,14.648,24.902,25.391,-14.160,-73.242
1734296602.756,47.363,25.879,26.855,82.520,163.574
1734296602.760,34.668,31.738,30.273,62.500,146.484
1734296602.764,0.977,37.109,24.902,-29.785,-92.285
1734296602.768,0.000,30.762,19.043,-29.785,-156.250
1734296602.772,27.832,26.855,18.555,60.547,97.168
1734296602.776,37.598,32.715,24.902,87.402,215.332
1734296602.780,8.301,34.668,28.809,3.418,-4.395
1734296602.784,-7.812,36.133,26.855,-43.945,-166.992
1734296602.788,22.949,32.227,22.949,37.109,9.277
1734296602.791,46.875,31.250,22.949,97.168,212.891
1734296602.795,19.043,31.250,26.367,21.973,46.387
1734296602.799,-2.441,25.391,29.785,-51.270,-189.453
1734296602.803,30.762,28.320,28.320,14.160,-31.738
1734296602.807,61.035,37.598,24.902,99.609,253.906
1734296602.811,39.551,35.645,23.438,54.688,144.531
1734296602.815,7.812,32.227,20.996,-37.598,-131.348
1734296602.819,25.391,33.203,20.996,-8.301,-104.004
1734296602.823,56.641,25.879,23.438,86.426,160.156
1734296602.827,44.922,21.973,21.973,71.777,203.613
1734296602.831,13.184,29.785,20.508,-18.555,-53.711
1734296602.834,4.883,31.738,18.555,-35.156,-172.363
1734296602.838,39.062,28.809,14.160,54.199,75.195
1734296602.842,50.781,9.277,19.043,90.332,234.375
1734296602.846,10.254,2.930,20.996,2.441,-5.371
1734296602.850,-7.812,29.297,18.555,-51.270,-172.363
1734296602.854,23.926,43.457,26.855,27.344,2.441
1734296602.858,46.875,39.062,31.738,97.168,228.516
1734296602.862,18.555,38.086,27.832,31.250,109.375
1734296602.866,-13.672,37.109,25.391,-44.922,-161.621
1734296602.870,9.766,20.508,22.461,4.883,-65.918
1734296602.873,45.410,11.719,21.973,91.309,216.797
1734296602.877,30.273,28.320,27.344,57.617,181.641
1734296602.881,-6.836,33.691,31.738,-37.109,-78.125
1734296602.885,-3.418,25.879,31.250,-17.578,-93.262
1734296602.889,34.668,21.484,32.715,74.219,145.996
1734296602.893,30.762,15.625,35.645,72.266,225.586
1734296602.897,-17.090,12.207,34.180,-15.625,0.000
1734296602.901,-23.926,20.020,30.273,-41.016,-140.625
1734296602.905,17.090,30.762,28.809,43.945,75.195
1734296602.909,28.809,29.785,28.809,92.773,251.953
1734296602.913,-5.371,26.367,26.367,8.301,65.918
1734296602.916,-20.508,14.648,28.320,-52.246,-170.410
1734296602.920,13.672,8.789,30.762,29.785,0.488
1734296602.924,47.363,21.484,32.227,103.027,232.910
1734296602.928,24.414,20.508,38.086,33.691,87.891
1734296602.932,-9.277,16.113,35.156,-54.688,-138.184
1734296602.936,22.949,22.949,30.762,-2.930,-69.336
1734296602.940,59.082,34.180,29.785,88.867,178.223
1734296602.944,39.551,44.434,26.367,59.570,160.156
1734296602.948,0.000,41.016,25.879,-40.039,-107.422
1734296602.952,1.465,36.133,26.855,-33.203,-148.926
1734296602.955,44.434,39.551,26.367,69.824,98.145
1734296602.959,53.223,39.062,27.344,83.008,210.449
1734296602.963,16.113,35.156,30.273,-10.254,-16.602
1734296602.967,0.488,30.762,27.832,-47.852,-173.340
1734296602.971,28.809,22.949,27.832,39.062,51.758
1734296602.975,49.316,23.926,32.227,97.168,229.004
1734296602.979,19.531,29.297,30.273,15.137,27.344
1734296602.983,-5.859,25.391,26.367,-52.734,-206.055
1734296602.987,15.137,25.391,24.414,18.555,-18.555
1734296602.991,40.039,32.227,24.414,91.309,240.723
1734296602.995,17.578,36.133,27.832,33.203,120.117
1734296602.998,-17.578,36.133,33.691,-51.270,-131.836
1734296603.002,-2.930,30.273,33.203,-11.719,-95.215
1734296603.006,32.715,40.039,27.832,75.684,151.855
1734296603.010,25.879,47.363,30.762,56.152,173.340
1734296603.014,-9.766,40.527,33.203,-31.250,-76.660
1734296603.018,-8.789,26.855,29.785,-30.762,-138.672
1734296603.022,27.832,26.855,27.344,59.570,116.699
1734296603.026,30.273,46.875,31.250,77.637,218.750
1734296603.030,-2.930,44.922,31.250,-9.766,-4.883
1734296603.034,-14.160,41.016,28.809,-53.711,-157.227
1734296603.037,20.020,29.785,31.738,36.133,33.203
1734296603.041,44.922,11.719,34.668,99.609,247.070
1734296603.045,17.578,26.855,33.691,20.020,65.430
1734296603.049,-6.348,45.410,30.762,-51.270,-166.992
1734296603.053,21.484,36.621,28.809,15.137,-23.926
1734296603.057,54.688,26.367,26.367,99.121,194.336
1734296603.061,38.086,36.133,26.367,52.246,133.301
1734296603.065,8.789,42.480,29.297,-34.668,-124.023
1734296603.069,22.949,41.016,31.738,-7.324,-125.488
1734296603.073,54.688,34.180,31.738,88.379,149.902
1734296603.077,52.246,20.020,32.227,84.473,166.016
1734296603.080,12.207,12.207,29.785,-18.555,-82.520
1734296603.084,10.254,19.531,26.367,-36.133,-156.738
1734296603.088,47.363,26.367,23.926,58.105,79.102
1734296603.092,56.152,29.785,22.949,96.191,231.934
1734296603.096,23.926,15.137,24.902,7.812,13.672
1734296603.100,3.906,2.441,24.902,-48.340,-175.781
1734296603.104,32.715,22.949,23.926,28.809,21.484
1734296603.108,54.199,45.410,25.879,91.797,225.586
1734296603.112,32.227,42.480,31.250,26.855,68.359
1734296603.116,6.836,32.227,28.809,-45.898,-170.898
1734296603.119,20.508,23.926,21.484,3.906,-55.176
1734296603.123,47.852,18.555,22.949,84.473,203.613
1734296603.127,30.273,20.508,26.855,50.781,150.391
1734296603.131,-0.488,25.879,27.344,-35.645,-101.074
1734296603.135,4.883,19.043,28.809,-19.043,-129.883
1734296603.139,34.180,6.836,30.273,76.660,134.277
1734296603.143,39.062,16.113,30.762,81.055,199.219
1734296603.147,2.441,22.949,27.344,-10.742,-62.500
1734296603.151,-9.277,15.625,24.414,-35.156,-172.852
1734296603.155,26.367,8.301,25.879,51.270,74.219
1734296603.159,42.969,9.766,24.414,94.727,234.863
1734296603.162,8.301,14.160,21.973,9.277,14.648
1734296603.166,-12.695,17.578,22.949,-50.781,-163.574
1734296603.170,21.484,20.996,29.297,27.832,-10.254
1734296603.174,47.852,21.484,32.715,98.145,217.773
1734296603.178,25.879,27.344,27.344,31.250,126.953
1734296603.182,0.000,26.367,21.973,-48.828,-129.883
1734296603.186,24.902,18.555,21.973,0.000,-52.246
1734296603.190,58.594,24.902,21.484,86.914,222.656
1734296603.194,43.945,37.109,21.484,57.129,177.246
1734296603.198,12.207,31.250,24.414,-34.180,-95.703
1734296603.202,19.043,23.926,25.391,-23.926,-128.906
1734296603.205,52.734,31.738,24.414,72.754,93.750
1734296603.209,56.641,40.527,20.996,86.914,185.059
1734296603.213,17.090,40.039,18.555,-6.348,-23.926
1734296603.217,7.324,36.621,22.949,-39.062,-153.809
1734296603.221,40.039,32.227,27.344,45.898,63.477
1734296603.225,57.617,22.461,27.832,97.656,226.562
1734296603.229,30.273,7.324,33.691,25.391,40.527
1734296603.233,1.953,15.625,37.109,-46.387,-168.945
1734296603.237,24.902,33.203,28.320,10.254,-25.879
1734296603.241,51.270,40.527,24.414,89.355,219.727
1734296603.244,27.832,39.551,26.367,45.410,119.141
1734296603.248,-4.395,32.227,25.879,-40.527,-134.766
1734296603.252,6.348,24.902,25.879,-2.930,-76.660
1734296603.256,38.086,20.020,23.926,83.496,173.340
1734296603.260,32.715,21.973,28.320,60.059,180.664
1734296603.264,2.441,29.785,36.133,-21.973,-85.938
1734296603.268,1.953,35.156,38.086,-24.414,-153.809
1734296603.272,35.645,33.203,34.668,65.430,119.629
1734296603.276,50.293,34.180,29.785,86.914,242.188
1734296603.280,17.578,27.344,28.809,-5.371,-0.488
1734296603.284,0.977,22.461,29.297,-43.945,-195.801
1734296603.287,31.250,37.109,28.809,39.062,18.555
1734296603.291,46.387,47.363,27.832,94.727,231.445
1734296603.295,15.137,44.922,27.832,18.066,69.336
1734296603.299,-7.324,35.645,28.320,-55.176,-168.945
1734296603.303,18.066,33.691,27.344,4.395,-55.664
1734296603.307,45.410,33.691,26.367,85.449,199.707
1734296603.311,27.344,28.809,30.273,43.457,124.023
1734296603.315,-5.371,31.250,29.785,-49.805,-123.047
1734296603.319,9.277,34.668,25.391,-25.879,-108.887
1734296603.323,40.527,29.785,25.879,73.242,134.766
1734296603.326,43.457,23.926,28.320,73.242,190.918
1734296603.330,12.207,27.344,31.250,-22.461,-59.570
1734296603.334,-5.371,36.621,28.320,-42.480,-168.457
1734296603.338,26.367,37.109,23.438,48.340,57.617
1734296603.342,43.457,33.203,23.926,81.055,224.609
1734296603.346,6.836,36.133,27.344,-4.883,28.320
1734296603.350,-15.625,32.227,24.414,-55.664,-178.711
1734296603.354,20.508,26.855,19.043,24.414,4.395
1734296603.358,47.852,22.949,20.508,99.121,220.703
1734296603.362,18.555,22.949,23.438,33.691,79.590
1734296603.366,-4.883,23.438,20.508,-49.316,-126.953
1734296603.369,20.020,20.508,21.484,4.883,-25.879
1734296603.373,52.734,26.855,25.391,95.215,198.242
1734296603.377,44.434,29.785,25.391,63.477,138.672
1734296603.381,11.230,27.344,24.414,-29.785,-118.164
1734296603.385,28.320,33.691,23.926,-14.160,-129.883
1734296603.389,69.824,34.180,21.973,76.172,114.746
1734296603.393,62.012,31.250,26.855,78.125,181.152
1734296603.397,21.484,37.109,29.297,-13.672,-63.477
1734296603.401,10.254,32.715,28.809,-32.227,-161.133
1734296603.405,40.039,22.461,33.691,64.941,73.730
1734296603.408,48.828,30.273,31.250,109.375,252.441
1734296603.412,14.648,39.062,26.855,18.066,40.039
1734296603.416,-8.789,39.551,27.344,-51.758,-179.688
1734296603.420,20.996,30.273,27.344,28.809,2.441
1734296603.424,44.434,21.484,24.902,104.492,228.027
1734296603.428,17.578,24.902,24.902,39.062,120.117
1734296603.432,-9.766,27.344,29.785,-39.551,-142.090
1734296603.436,12.207,26.855,28.320,1.953,-91.309
1734296603.440,47.363,27.344,27.344,89.844,179.688
1734296603.444,33.691,16.602,33.691,68.848,159.668
1734296603.448,-2.930,3.418,31.250,-29.785,-86.914
1734296603.451,1.465,18.066,29.297,-31.250,-147.949
1734296603.455,33.691,33.203,30.273,62.500,84.961
1734296603.459,38.086,34.668,23.438,79.102,204.102
1734296603.463,6.836,27.344,22.949,-12.695,-45.898
1734296603.467,-8.789,15.625,28.809,-49.805,-187.988
1734296603.471,25.391,20.020,27.832,33.691,39.062
1734296603.475,55.176,24.902,28.809,88.867,204.590
1734296603.479,22.461,14.160,33.203,16.113,33.691
1734296603.483,-7.812,16.113,32.715,-43.945,-156.250
1734296603.487,25.391,23.926,30.762,25.391,-8.789
1734296603.491,61.523,24.414,29.297,102.051,203.613
1734296603.494,33.203,20.020,28.809,49.316,104.980
1734296603.498,1.953,16.113,30.762,-40.039,-146.973
1734296603.502,23.926,24.414,28.809,-2.441,-79.590
1734296603.506,53.223,33.691,30.762,91.797,181.641
1734296603.510,43.457,34.668,35.156,69.336,173.340
1734296603.514,13.184,38.574,35.156,-23.926,-79.102
1734296603.518,12.207,43.945,29.297,-23.926,-161.133
1734296603.522,50.293,41.504,23.438,69.336,98.633
1734296603.526,60.547,37.598,24.414,96.191,232.422
1734296603.530,18.066,36.621,28.320,2.930,-16.113
1734296603.533,-4.395,38.086,30.762,-47.363,-184.082
1734296603.537,27.832,34.668,28.809,35.645,20.020
1734296603.541,52.734,25.879,29.785,101.074,210.938
1734296603.545,21.973,28.320,28.809,22.461,30.762
1734296603.549,-5.371,41.504,25.879,-62.500,-202.148
1734296603.553,20.996,41.992,24.414,3.418,-69.336
1734296603.557,44.922,35.156,20.996,91.309,183.594
1734296603.561,25.879,37.598,22.461,48.340,134.277
1734296603.565,-3.418,40.039,23.926,-39.551,-113.281
1734296603.569,7.324,37.109,20.996,-18.555,-117.676
1734296603.573,41.992,33.203,21.484,80.078,155.762
1734296603.576,36.621,31.738,22.949,78.125,220.703
1734296603.580,4.395,34.180,26.855,-18.066,-42.969
1734296603.584,0.000,32.715,25.879,-41.504,-153.809
1734296603.588,32.227,29.297,17.578,46.387,83.496
1734296603.592,49.316,36.621,16.113,89.355,257.812
1734296603.596,16.602,37.109,19.531,2.441,33.203
1734296603.600,0.977,28.320,20.996,-49.805,-187.500
1734296603.604,39.062,30.273,20.508,29.297,-3.906
1734296603.608,60.547,34.180,21.973,94.238,221.680
1734296603.612,25.879,30.273,22.949,27.832,76.172
1734296603.615,-3.418,25.391,22.461,-48.340,-160.645
1734296603.619,17.578,26.855,17.578,0.000,-47.363
1734296603.623,51.270,34.668,11.230,82.520,206.055
1734296603.627,41.992,35.645,18.066,50.293,133.789
1734296603.631,1.465,32.227,24.414,-37.598,-121.094
1734296603.635,3.418,29.785,21.973,-20.508,-93.750
1734296603.639,43.457,39.062,27.832,77.148,154.785
1734296603.643,39.062,53.223,28.320,73.730,200.684
1734296603.647,-3.418,54.688,20.020,-26.855,-41.504
1734296603.651,-8.789,56.641,17.578,-45.410,-158.691
1734296603.655,34.668,58.105,16.602,49.316,75.195
1734296603.658,54.199,51.758,22.461,98.633,221.191
1734296603.662,22.461,48.828,26.855,11.719,6.836
1734296603.666,-1.465,54.199,24.414,-54.688,-170.898
1734296603.670,27.344,57.617,25.391,21.973,-8.301
1734296603.674,59.082,53.711,32.227,103.027,207.031
1734296603.678,33.691,52.246,40.039,45.898,101.074
1734296603.682,-1.953,45.898,40.039,-40.039,-133.301
1734296603.686,11.719,35.645,33.203,1.465,-83.008
1734296603.690,40.527,37.109,24.414,87.891,179.688
1734296603.694,32.227,37.109,22.949,64.941,166.992
1734296603.697,-1.465,39.062,29.297,-23.926,-112.793
1734296603.701,-2.930,42.969,33.691,-24.902,-132.324
1734296603.705,31.250,41.992,29.297,66.895,122.559
1734296603.709,45.898,42.969,29.785,95.215,195.312
1734296603.713,16.602,42.969,37.109,4.395,-51.758
1734296603.717,-1.465,43.457,36.621,-35.645,-180.664
1734296603.721,31.250,40.527,29.297,49.316,38.574
1734296603.725,47.852,36.621,23.438,99.609,194.336
1734296603.729,13.184,40.039,23.926,18.555,23.438
1734296603.733,-13.184,43.945,27.344,-50.781,-186.035
1734296603.737,14.648,45.410,22.949,18.555,-48.340
1734296603.740,47.852,46.875,22.949,99.121,212.402
1734296603.744,27.344,35.645,25.391,44.922,110.840
1734296603.748,5.859,30.762,20.508,-41.992,-133.789
1734296603.752,23.438,33.691,19.043,-6.348,-83.008
1734296603.756,47.852,32.227,20.996,83.008,163.574
1734296603.760,39.062,35.645,20.996,62.500,187.500
1734296603.764,10.254,38.574,19.531,-33.203,-56.641
1734296603.768,14.648,40.527,23.926,-34.668,-139.160
1734296603.772,54.688,33.203,34.180,72.754,103.516
1734296603.776,69.824,31.738,40.039,116.699,255.371
1734296603.780,20.508,34.668,35.645,11.719,25.391
1734296603.783,-10.742,34.668,26.855,-56.152,-163.086
1734296603.787,31.738,50.781,24.414,39.062,42.480
1734296603.791,64.453,60.547,31.738,111.328,233.398
1734296603.795,28.809,57.129,33.691,31.738,46.387
1734296603.799,2.930,52.734,28.809,-45.410,-180.664
1734296603.803,28.809,52.246,29.297,18.066,-62.500
1734296603.807,55.176,49.805,33.203,105.469,202.148
1734296603.811,40.039,41.016,30.762,59.570,150.879
1734296603.815,8.301,41.992,32.227,-29.297,-125.977
