timestamps,TP9,AF7,AF8,TP10,Right AUX
1734297495.156,20.996,23.926,27.344,24.902,74.219
1734297495.160,28.320,25.879,34.668,39.551,91.797
1734297495.164,35.156,25.879,39.551,31.738,80.566
1734297495.168,30.273,27.832,39.551,16.602,92.285
1734297495.172,24.902,31.738,41.016,33.691,65.430
1734297495.176,29.297,36.621,41.016,57.617,34.668
1734297495.180,24.414,40.527,38.574,35.156,-12.207
1734297495.183,24.902,36.621,39.551,9.766,35.156
1734297495.187,29.785,34.180,38.086,17.578,68.359
1734297495.191,27.344,36.133,37.598,26.855,-62.500
1734297495.195,19.531,38.086,37.109,13.184,-44.434
1734297495.199,27.832,35.645,36.133,19.043,71.777
1734297495.203,32.715,36.621,37.598,29.785,99.121
1734297495.207,21.484,37.109,36.133,26.367,63.477
1734297495.211,23.926,36.133,35.156,33.203,44.922
1734297495.215,20.020,36.133,41.504,26.367,50.293
1734297495.219,36.133,35.156,45.898,25.879,51.758
1734297495.223,40.039,33.691,44.434,36.621,76.172
1734297495.226,27.344,29.297,45.898,39.062,-34.668
1734297495.230,24.902,29.297,41.504,27.832,-125.488
1734297495.234,28.320,29.785,34.668,29.785,-2.930
1734297495.238,38.086,32.227,35.156,38.086,80.078
1734297495.242,21.973,31.250,29.785,23.926,102.051
1734297495.246,4.395,25.879,23.926,13.184,55.664
1734297495.250,13.672,25.391,19.043,4.883,42.480
1734297495.254,15.625,30.273,19.043,12.695,69.824
1734297495.258,11.230,32.227,22.461,25.391,65.918
1734297495.262,15.625,32.227,23.926,18.555,49.316
1734297495.265,16.602,32.715,21.973,5.371,-29.297
1734297495.269,28.320,32.715,22.949,16.602,-48.340
1734297495.273,34.180,31.250,24.902,36.133,7.324
1734297495.277,35.645,32.715,27.344,32.715,64.941
1734297495.281,11.230,36.133,32.715,29.297,54.199
1734297495.285,-7.812,35.645,35.156,16.602,-74.707
1734297495.289,7.812,36.621,34.668,14.648,-48.340
1734297495.293,17.578,35.156,36.133,27.832,63.477
1734297495.297,15.137,33.203,36.133,25.879,51.758
1734297495.301,8.789,35.645,33.203,11.719,-5.859
1734297495.305,14.160,33.203,29.297,16.113,5.371
1734297495.308,30.762,29.785,32.227,40.039,89.355
1734297495.312,27.344,29.785,35.156,39.062,58.105
1734297495.316,5.859,30.762,31.250,34.668,28.320
1734297495.320,13.184,36.133,33.203,25.391,-33.203
1734297495.324,20.996,39.551,35.645,20.020,-79.102
1734297495.328,13.184,36.621,39.551,23.438,4.883
1734297495.332,14.160,36.133,40.527,14.648,29.297
1734297495.336,29.297,37.598,38.086,29.297,73.730
1734297495.340,41.504,38.086,41.504,46.875,63.477
1734297495.344,21.973,37.598,42.969,38.574,28.320
1734297495.348,15.137,37.109,41.504,33.691,53.711
1734297495.351,30.762,37.598,39.551,41.016,56.641
1734297495.355,39.551,34.180,38.574,41.016,68.848
1734297495.359,44.922,29.297,38.086,44.434,68.359
1734297495.363,41.504,28.809,41.016,35.645,0.000
1734297495.367,24.414,30.762,43.457,18.555,-27.344
1734297495.371,19.531,27.832,40.527,37.109,58.594
1734297495.375,33.691,28.320,41.992,50.293,61.035
1734297495.379,24.902,30.762,47.852,38.574,-84.961
1734297495.383,27.832,29.297,42.480,30.762,-72.754
1734297495.387,37.598,28.809,38.574,35.156,60.059
1734297495.390,30.762,27.832,39.551,42.969,82.031
1734297495.394,30.762,27.832,38.086,50.293,29.297
1734297495.398,32.715,27.832,37.598,29.785,-5.371
1734297495.402,37.598,28.320,38.574,16.113,42.969
1734297495.406,43.945,29.297,35.645,32.227,83.984
1734297495.410,26.855,31.738,30.762,30.762,55.176
1734297495.414,5.859,36.621,36.133,24.414,-67.871
1734297495.418,17.090,35.156,40.039,31.738,-125.977
1734297495.422,31.250,31.250,37.109,38.086,29.297
1734297495.426,16.113,28.809,35.156,39.062,101.074
1734297495.430,7.324,30.762,34.180,30.762,53.223
1734297495.433,19.531,31.738,34.668,28.320,20.996
1734297495.437,28.320,29.297,34.668,35.645,34.668
1734297495.441,39.062,29.785,32.227,32.715,24.414
1734297495.445,34.180,30.273,29.297,34.180,29.297
1734297495.449,16.602,31.738,28.809,31.250,57.617
1734297495.453,30.273,29.297,24.902,23.926,48.828
1734297495.457,28.320,25.391,22.949,23.926,38.086
1734297495.461,21.973,27.344,25.391,26.855,7.324
1734297495.465,25.391,29.297,28.809,20.508,51.758
1734297495.469,32.715,30.273,33.203,20.996,75.684
1734297495.472,35.645,31.738,32.715,32.715,-42.969
1734297495.476,2.930,30.762,33.691,34.180,-28.320
1734297495.480,1.953,27.344,37.109,38.574,18.066
1734297495.484,12.695,28.809,34.668,27.344,45.898
1734297495.488,32.227,33.203,34.180,33.203,64.453
1734297495.492,34.180,33.203,36.621,36.133,44.434
1734297495.496,14.648,32.227,36.133,30.762,38.086
1734297495.500,20.508,29.785,34.668,32.227,31.250
1734297495.504,45.410,28.320,32.715,34.668,58.105
1734297495.508,48.828,30.273,32.227,37.598,-38.086
1734297495.512,23.438,31.738,30.273,18.555,-87.891
1734297495.515,17.578,33.203,31.250,18.555,30.762
1734297495.519,39.062,33.203,37.109,36.621,87.891
1734297495.523,54.688,30.762,39.551,43.945,114.258
1734297495.527,35.156,30.762,40.039,55.176,70.801
1734297495.531,29.785,28.320,37.598,41.016,38.574
1734297495.535,29.785,28.809,38.086,35.645,65.918
1734297495.539,19.043,30.273,38.086,48.828,84.473
1734297495.543,1.953,28.809,36.133,37.109,72.266
1734297495.547,-8.301,28.809,34.180,22.949,0.977
1734297495.551,20.996,30.762,36.133,19.531,-8.301
1734297495.555,27.344,31.250,33.691,26.367,12.695
1734297495.558,5.859,29.297,29.297,35.645,0.977
1734297495.562,9.277,30.273,29.297,34.668,8.789
1734297495.566,8.789,31.738,28.809,18.555,-67.383
1734297495.570,4.395,29.785,26.855,16.602,-61.035
1734297495.574,17.578,29.297,23.926,21.484,52.246
1734297495.578,26.367,29.785,21.973,31.250,83.496
1734297495.582,21.973,27.344,25.879,31.250,41.992
1734297495.586,17.090,30.273,25.879,20.508,19.531
1734297495.590,29.785,34.180,23.926,24.414,71.289
1734297495.594,34.180,34.180,25.879,42.480,67.871
1734297495.597,15.137,35.645,21.484,55.176,33.203
1734297495.601,34.180,38.574,22.949,38.086,-41.992
1734297495.605,46.875,39.551,25.879,25.391,-62.500
1734297495.609,30.762,38.574,24.902,29.297,69.336
1734297495.613,24.902,37.598,27.344,26.855,53.223
1734297495.617,25.391,36.621,26.367,28.320,38.086
1734297495.621,18.555,34.668,27.832,41.504,80.566
1734297495.625,12.207,33.691,29.785,43.945,81.543
1734297495.629,8.301,34.180,27.344,33.691,90.820
1734297495.633,40.527,36.133,29.785,28.320,76.172
1734297495.637,38.574,35.156,32.715,40.039,66.895
1734297495.640,12.207,33.203,30.273,49.316,51.270
1734297495.644,14.648,34.180,27.832,24.414,-6.348
1734297495.648,11.230,34.180,26.367,-4.883,-23.438
1734297495.652,21.973,35.645,24.902,8.301,56.152
1734297495.656,23.438,40.039,27.344,41.016,74.707
1734297495.660,18.555,41.992,29.785,42.480,-80.078
1734297495.664,25.391,39.062,22.949,16.602,-69.824
1734297495.668,21.973,38.574,20.996,9.766,46.387
1734297495.672,17.578,39.551,24.414,26.855,42.969
1734297495.676,41.504,36.621,29.785,41.504,39.551
1734297495.680,41.992,36.133,33.691,31.738,32.715
1734297495.683,30.273,38.086,34.180,26.367,69.824
1734297495.687,45.410,39.062,36.133,19.043,102.051
1734297495.691,44.922,39.062,35.645,20.020,58.105
1734297495.695,36.621,36.133,33.691,40.039,-62.500
1734297495.699,52.246,35.645,32.227,26.855,-91.309
1734297495.703,46.387,35.156,29.785,30.762,45.898
1734297495.707,13.184,31.250,31.250,55.176,95.215
1734297495.711,5.371,28.809,35.156,45.410,78.613
1734297495.715,14.648,32.715,36.621,17.578,23.438
1734297495.719,28.320,40.039,36.133,12.695,51.270
1734297495.722,27.344,41.016,37.598,32.227,128.418
1734297495.726,27.344,41.504,41.504,45.898,67.383
1734297495.730,21.484,41.992,42.969,39.551,0.000
1734297495.734,29.297,39.062,38.086,26.855,6.836
1734297495.738,52.734,38.574,33.203,31.250,-6.836
1734297495.742,39.551,37.598,30.273,41.504,-22.461
1734297495.746,19.043,36.133,29.785,30.273,34.180
1734297495.750,38.086,36.621,33.203,19.043,33.203
1734297495.754,48.340,36.621,34.180,41.992,-83.984
1734297495.758,31.250,32.227,30.273,53.711,-8.789
1734297495.762,16.602,33.203,31.738,36.133,91.309
1734297495.765,28.320,35.645,35.156,23.926,32.715
1734297495.769,29.297,35.156,38.086,34.180,30.273
1734297495.773,30.762,34.180,39.551,50.781,52.734
1734297495.777,33.691,30.273,36.621,55.664,73.242
1734297495.781,41.992,29.297,38.086,45.410,31.738
1734297495.785,59.082,29.297,40.039,27.344,4.395
1734297495.789,59.082,29.785,38.574,43.457,-57.129
1734297495.793,41.992,33.203,35.645,67.871,-92.285
1734297495.797,36.621,34.668,31.738,46.875,21.484
1734297495.801,39.551,35.156,35.156,32.227,65.918
1734297495.804,37.109,38.574,39.551,48.828,103.516
1734297495.808,37.598,41.016,41.504,61.035,77.148
1734297495.812,31.738,35.645,39.062,50.781,35.156
1734297495.816,51.758,35.645,35.156,56.641,62.012
1734297495.820,67.383,37.598,36.621,61.035,81.055
1734297495.824,47.363,35.645,35.156,44.922,80.566
1734297495.828,25.879,37.109,33.203,48.828,19.043
1734297495.832,32.227,34.668,35.156,41.992,-19.043
1734297495.836,36.621,31.738,33.691,25.879,-6.836
1734297495.840,16.602,33.691,31.250,30.273,79.590
1734297495.844,8.301,37.598,34.668,38.574,60.059
1734297495.847,13.672,39.062,36.133,35.156,-100.586
1734297495.851,13.672,36.621,35.645,25.879,-40.039
1734297495.855,18.555,34.668,36.133,46.387,94.727
1734297495.859,28.320,32.715,35.645,59.082,106.934
1734297495.863,23.926,32.227,33.691,35.645,37.598
1734297495.867,20.508,31.250,35.645,26.855,-12.207
1734297495.871,21.484,30.273,40.527,36.133,53.223
1734297495.875,31.250,29.785,41.016,58.105,71.289
1734297495.879,31.250,32.227,34.668,52.246,42.480
1734297495.883,38.086,34.180,27.344,26.855,-53.223
1734297495.887,33.203,33.203,24.902,26.367,-99.121
1734297495.890,2.441,34.180,28.320,55.664,32.715
1734297495.894,13.672,33.691,30.273,54.199,70.801
1734297495.898,26.367,29.785,33.203,11.719,44.434
1734297495.902,30.273,34.180,36.133,14.648,29.297
1734297495.906,38.574,40.039,32.227,41.016,58.105
1734297495.910,29.785,41.504,29.785,42.969,99.121
1734297495.914,36.133,41.016,32.227,33.203,60.547
1734297495.918,38.574,37.109,36.621,35.645,50.781
1734297495.922,34.180,35.645,39.551,35.645,43.945
1734297495.926,56.152,38.574,33.203,36.133,5.371
1734297495.929,57.129,41.016,28.809,48.828,-23.926
1734297495.933,27.832,39.551,30.273,29.297,29.785
1734297495.937,25.879,36.133,25.879,25.391,86.426
1734297495.941,37.598,37.598,27.344,35.645,-39.062
1734297495.945,26.367,36.621,34.668,37.598,-47.363
1734297495.949,21.484,38.086,40.039,40.527,66.406
1734297495.953,21.973,36.133,42.969,42.969,94.727
1734297495.957,27.344,33.203,38.574,55.664,71.777
1734297495.961,36.621,38.086,35.645,51.758,21.484
1734297495.965,36.133,39.062,34.668,32.715,21.973
1734297495.969,24.414,35.645,33.203,26.855,30.273
1734297495.972,22.949,35.156,34.180,40.527,46.387
1734297495.976,26.855,34.180,37.109,46.387,-26.855
1734297495.980,14.160,31.250,37.109,33.203,-129.395
1734297495.984,7.812,26.855,37.109,25.879,-1.465
1734297495.988,45.898,30.762,39.062,33.203,89.355
1734297495.992,48.828,37.598,39.062,49.805,69.824
1734297495.996,11.230,34.668,39.551,39.062,28.320
1734297496.000,17.090,29.297,38.086,26.855,17.090
1734297496.004,39.551,33.203,36.621,46.875,67.871
1734297496.008,46.875,34.180,36.621,60.059,106.445
1734297496.012,22.461,29.297,36.133,56.641,78.613
1734297496.015,19.043,28.809,35.156,25.391,20.508
1734297496.019,29.297,29.785,31.738,4.883,17.578
1734297496.023,29.785,29.297,29.297,19.531,12.207
1734297496.027,38.574,31.250,32.227,32.227,-16.113
1734297496.031,31.738,35.156,38.574,30.762,-35.156
1734297496.035,12.695,37.109,39.551,20.996,-94.727
1734297496.039,23.926,37.598,38.086,39.551,-33.203
1734297496.043,34.180,33.691,37.109,49.316,83.496
1734297496.047,31.250,31.250,36.621,28.320,92.285
1734297496.051,34.668,36.621,35.645,22.949,52.246
1734297496.054,18.066,38.086,34.668,24.902,28.320
1734297496.058,13.184,33.691,31.250,35.156,75.195
1734297496.062,14.648,30.273,29.785,35.645,69.824
1734297496.066,24.414,30.273,36.621,23.438,12.207
1734297496.070,44.922,31.738,41.504,25.391,-72.754
1734297496.074,50.293,34.668,41.504,36.133,-96.680
1734297496.078,35.645,34.668,38.086,33.691,-2.441
1734297496.082,9.766,32.227,38.574,20.508,63.965
1734297496.086,23.438,34.180,43.457,28.320,91.797
1734297496.090,29.785,36.621,45.410,39.062,78.613
1734297496.094,16.602,35.645,41.504,35.156,47.852
1734297496.097,26.855,32.715,36.621,26.855,70.312
1734297496.101,24.414,31.250,33.203,11.230,87.891
1734297496.105,14.648,32.715,33.203,29.297,92.773
1734297496.109,32.227,32.227,31.250,49.805,64.941
1734297496.113,38.574,29.785,29.785,23.926,5.859
1734297496.117,19.043,26.367,29.785,12.695,-31.738
1734297496.121,13.184,28.320,30.273,40.527,47.852
1734297496.125,26.367,31.250,30.273,45.410,90.820
1734297496.129,23.926,31.250,31.738,26.367,-50.781
1734297496.133,24.414,32.715,35.156,8.789,-83.008
1734297496.136,54.199,32.227,33.691,17.090,30.762
1734297496.140,57.617,28.320,30.762,32.715,102.051
1734297496.144,11.719,28.809,32.227,42.480,50.781
1734297496.148,0.000,31.250,31.738,32.227,13.184
1734297496.152,28.320,33.203,29.785,9.766,67.871
1734297496.156,31.250,35.156,32.715,24.902,84.961
1734297496.160,17.090,32.227,35.645,39.551,52.734
1734297496.164,8.301,31.738,41.016,22.461,-65.918
1734297496.168,11.230,31.738,40.039,4.883,-117.676
1734297496.172,33.203,29.297,34.180,11.230,31.250
1734297496.176,19.043,31.250,33.691,21.484,86.914
1734297496.179,9.277,29.297,34.180,19.043,66.406
1734297496.183,3.906,25.879,35.156,12.207,35.645
1734297496.187,13.672,25.391,34.180,14.648,53.711
1734297496.191,20.996,25.879,32.227,15.137,46.875
1734297496.195,16.113,25.879,35.156,35.156,-5.859
1734297496.199,12.695,21.973,38.574,35.645,23.926
1734297496.203,5.859,22.461,32.715,17.090,29.297
1734297496.207,31.250,25.879,31.250,19.043,12.207
1734297496.211,43.945,28.809,43.457,22.461,-17.578
1734297496.215,26.855,32.715,50.293,23.438,27.344
1734297496.219,21.973,30.273,45.898,25.879,80.566
1734297496.222,36.133,31.738,42.969,27.832,-36.621
1734297496.226,20.996,30.273,39.551,24.902,-41.016
1734297496.230,15.137,27.832,36.133,25.391,59.082
1734297496.234,34.668,32.227,32.715,23.438,71.777
1734297496.238,28.809,32.227,36.133,33.203,33.203
1734297496.242,22.461,30.762,41.504,39.062,19.043
1734297496.246,27.832,31.738,34.180,27.344,62.500
1734297496.250,28.809,31.738,27.832,18.066,20.508
1734297496.254,31.738,32.227,29.785,32.227,12.695
1734297496.258,47.363,32.715,30.762,46.875,-19.043
1734297496.261,26.855,28.320,29.297,37.598,-92.773
1734297496.265,21.484,23.926,26.855,25.391,10.254
1734297496.269,36.621,23.926,25.391,15.625,81.543
1734297496.273,42.969,24.902,27.344,30.762,76.660
1734297496.277,31.738,27.832,27.832,41.016,61.523
1734297496.281,21.973,28.320,30.273,27.832,44.922
1734297496.285,30.762,28.320,34.180,20.020,66.406
1734297496.289,48.340,27.832,37.109,23.438,77.637
1734297496.293,30.273,30.273,34.668,27.832,62.988
1734297496.297,1.953,32.715,32.715,15.137,19.531
1734297496.301,12.207,28.809,33.203,7.324,-18.555
1734297496.304,12.207,25.879,33.203,12.695,-2.930
1734297496.308,4.883,25.879,35.156,13.184,36.621
1734297496.312,2.930,30.762,33.691,14.648,47.852
1734297496.316,16.602,32.227,32.227,14.160,-64.941
1734297496.320,16.113,30.762,32.227,12.207,-32.227
1734297496.324,-1.465,28.320,33.203,13.672,86.426
1734297496.328,-5.371,25.879,37.109,26.367,70.801
1734297496.332,11.230,27.832,39.062,20.996,29.297
1734297496.336,23.438,28.809,40.039,0.977,22.949
1734297496.340,9.766,27.832,40.039,18.066,97.168
1734297496.344,10.254,27.832,41.992,23.438,114.746
1734297496.347,22.949,28.320,43.945,9.277,40.039
1734297496.351,23.926,27.344,43.945,11.719,-59.082
1734297496.355,23.926,27.832,45.898,23.926,-78.613
1734297496.359,19.531,28.320,47.852,37.598,32.227
1734297496.363,20.020,31.250,50.293,36.133,39.062
1734297496.367,31.738,34.180,46.387,23.438,3.418
1734297496.371,37.598,34.180,39.062,33.691,26.855
1734297496.375,31.250,32.715,41.504,43.457,50.781
1734297496.379,29.785,33.691,43.945,40.527,58.105
1734297496.383,28.809,34.180,41.992,28.809,51.270
1734297496.386,28.809,35.645,41.016,22.949,55.664
1734297496.390,54.688,37.598,43.945,48.828,29.297
1734297496.394,60.059,36.133,43.457,45.898,26.855
1734297496.398,19.531,33.203,42.480,20.508,20.996
1734297496.402,20.508,31.738,46.875,15.625,36.133
1734297496.406,49.316,30.762,43.945,30.762,91.309
1734297496.410,42.969,36.621,39.551,48.828,-36.133
1734297496.414,34.668,39.551,38.086,40.527,-48.828
1734297496.418,46.387,38.086,36.133,27.832,83.984
1734297496.422,43.945,38.574,38.086,32.715,74.707
1734297496.426,39.551,37.109,40.527,41.016,20.996
1734297496.429,32.715,33.203,39.551,40.039,18.066
1734297496.433,27.344,30.762,41.016,37.109,69.824
1734297496.437,40.039,29.297,39.551,35.645,92.773
1734297496.441,57.129,26.855,38.574,35.645,70.801
1734297496.445,22.949,29.785,41.016,35.156,-44.922
1734297496.449,-16.113,32.715,40.527,27.832,-108.887
1734297496.453,2.441,29.785,38.086,36.133,21.484
1734297496.457,24.902,29.785,37.109,34.668,94.238
1734297496.461,8.301,29.297,36.133,15.137,99.609
1734297496.465,0.977,32.715,39.062,7.324,41.992
1734297496.469,10.254,30.762,38.086,6.348,24.902
1734297496.472,18.555,26.855,34.180,17.578,93.262
1734297496.476,21.973,31.250,34.668,30.762,111.328
1734297496.480,34.668,35.156,35.645,25.879,35.156
1734297496.484,38.574,33.691,36.621,16.113,-21.484
1734297496.488,28.809,30.273,30.762,27.832,18.555
1734297496.492,32.227,29.785,23.926,31.250,17.578
1734297496.496,25.879,28.809,25.391,19.043,35.645
1734297496.500,5.859,30.273,30.762,22.949,35.156
1734297496.504,15.137,30.273,29.785,24.902,-76.172
1734297496.508,29.785,27.832,28.320,19.531,-22.949
1734297496.511,17.090,25.391,28.809,16.602,84.473
1734297496.515,11.230,23.438,30.762,9.766,71.289
1734297496.519,25.879,26.855,36.133,13.672,47.363
1734297496.523,38.574,34.180,33.203,30.762,48.340
1734297496.527,15.625,32.227,29.297,41.992,65.430
1734297496.531,8.789,30.273,29.785,26.367,42.480
1734297496.535,22.949,32.227,28.809,6.348,30.273
1734297496.539,39.062,32.227,28.809,20.508,-25.391
1734297496.543,31.738,32.715,29.785,31.250,-87.891
1734297496.547,26.367,32.227,32.715,15.137,-12.207
1734297496.551,20.508,28.809,33.691,10.254,69.824
1734297496.554,9.277,26.367,33.691,20.508,117.676
1734297496.558,20.996,27.832,33.691,22.949,79.590
1734297496.562,17.578,26.855,33.691,21.973,29.785
1734297496.566,30.273,27.832,33.203,18.555,31.250
1734297496.570,34.180,30.762,31.738,20.508,72.754
1734297496.574,30.762,30.273,32.715,33.691,78.125
1734297496.578,28.809,32.715,36.133,40.039,0.488
1734297496.582,25.391,33.203,38.086,28.809,-27.832
1734297496.586,31.250,27.832,33.203,17.090,-27.832
1734297496.590,15.625,22.949,26.855,26.367,23.438
1734297496.593,9.277,21.973,22.949,26.855,49.316
1734297496.597,17.090,21.973,25.879,9.766,-123.047
1734297496.601,15.137,23.438,27.832,14.648,-84.473
1734297496.605,26.367,27.832,25.879,32.227,68.359
1734297496.609,37.598,33.691,24.414,35.645,57.617
1734297496.613,26.367,36.621,23.926,26.367,24.414
1734297496.617,23.438,35.156,24.902,17.090,42.480
1734297496.621,44.922,31.250,24.414,23.438,81.543
1734297496.625,37.109,29.297,24.414,29.297,56.641
1734297496.629,24.414,29.785,26.855,33.203,28.320
1734297496.633,18.555,29.297,26.855,18.555,-53.711
1734297496.636,10.742,26.367,20.020,8.301,-110.840
1734297496.640,18.555,28.809,18.066,22.949,20.020
1734297496.644,22.461,34.668,22.461,24.902,83.984
1734297496.648,17.090,31.738,20.996,20.508,33.203
1734297496.652,24.414,30.762,19.043,15.625,32.715
1734297496.656,36.621,30.273,21.973,33.691,45.898
1734297496.660,37.109,27.832,31.250,45.898,52.246
1734297496.664,25.391,29.297,38.086,36.133,66.895
1734297496.668,42.480,27.832,38.086,36.133,75.684
1734297496.672,47.363,28.809,39.551,31.738,78.613
1734297496.676,31.738,30.273,42.480,37.109,30.762
1734297496.679,14.648,29.785,41.504,27.832,-14.160
1734297496.683,2.930,28.809,35.645,0.977,29.297
1734297496.687,14.160,28.809,34.180,17.090,62.012
1734297496.691,18.555,30.762,37.109,30.273,-44.434
1734297496.695,21.973,28.809,39.062,31.250,-40.039
1734297496.699,30.273,25.391,39.551,33.203,61.035
1734297496.703,35.645,25.879,39.551,23.926,91.309
1734297496.707,27.832,29.297,41.504,42.480,83.008
1734297496.711,14.648,31.250,41.992,38.086,29.785
1734297496.715,25.391,33.203,42.480,17.090,-7.812
1734297496.718,31.738,32.227,40.039,15.625,7.324
1734297496.722,29.297,30.762,37.109,28.809,56.152
1734297496.726,40.527,30.273,38.574,34.668,-19.531
1734297496.730,31.738,28.320,42.969,27.344,-97.168
1734297496.734,28.809,29.297,42.480,38.574,-5.371
1734297496.738,44.922,31.250,38.574,47.363,85.938
1734297496.742,36.133,31.250,36.133,39.551,123.535
1734297496.746,33.691,31.250,41.504,28.809,45.410
1734297496.750,32.715,29.297,44.922,19.531,14.648
1734297496.754,38.574,27.832,41.504,25.879,76.172
1734297496.758,54.688,28.320,41.992,41.016,85.938
1734297496.761,12.695,25.879,43.945,41.016,67.383
1734297496.765,1.465,31.250,43.457,25.391,8.301
1734297496.769,23.438,37.598,43.457,25.391,-15.625
1734297496.773,37.598,37.598,41.016,39.062,6.348
1734297496.777,32.715,39.551,36.621,40.527,41.504
1734297496.781,5.859,42.969,35.156,26.367,52.246
1734297496.785,14.648,39.551,34.180,24.902,-84.473
1734297496.789,34.180,38.086,28.809,23.926,-58.594
1734297496.793,22.949,41.992,24.902,23.438,56.152
1734297496.797,31.250,38.086,27.832,25.879,36.133
1734297496.801,45.410,33.691,32.715,18.555,11.719
1734297496.804,41.504,34.180,33.691,37.598,27.344
1734297496.808,34.180,34.180,33.203,53.223,78.125
1734297496.812,41.016,35.156,34.180,43.457,43.457
1734297496.816,25.879,35.645,33.691,31.738,-5.859
1734297496.820,23.438,31.250,31.738,25.879,-56.641
1734297496.824,33.203,31.738,34.180,41.992,-65.918
1734297496.828,28.320,33.691,35.645,38.574,-14.648
1734297496.832,34.668,32.227,37.598,26.855,-6.836
1734297496.836,27.344,34.180,39.551,36.621,50.293
1734297496.840,18.555,32.227,37.598,41.016,91.309
1734297496.843,13.184,26.855,38.086,39.062,71.289
1734297496.847,34.180,29.297,38.086,24.414,51.758
1734297496.851,32.715,35.645,34.668,17.090,45.410
1734297496.855,25.391,35.645,31.250,36.621,80.078
1734297496.859,41.016,33.691,33.691,42.480,52.246
1734297496.863,29.785,34.668,38.574,36.133,5.371
1734297496.867,19.043,32.715,39.551,20.996,-16.602
1734297496.871,14.648,28.320,37.598,18.555,28.320
1734297496.875,19.043,27.344,34.668,39.062,86.914
1734297496.879,42.480,26.855,30.762,35.645,-52.246
1734297496.883,39.551,25.879,29.785,19.043,-56.641
1734297496.886,-0.977,27.832,32.227,7.812,47.363
1734297496.890,-3.906,25.391,32.227,6.348,88.379
1734297496.894,13.672,27.344,30.762,19.043,87.402
1734297496.898,16.602,31.738,28.320,29.297,28.809
1734297496.902,24.902,28.320,29.785,20.020,64.453
1734297496.906,26.367,27.344,33.203,23.438,72.754
1734297496.910,25.879,32.715,30.273,37.598,43.457
1734297496.914,35.156,37.598,29.785,24.902,-43.945
1734297496.918,34.668,37.109,33.203,8.789,-77.148
1734297496.922,37.109,31.738,31.250,20.020,59.570
1734297496.925,39.551,30.273,25.391,32.227,113.281
1734297496.929,18.555,31.250,23.926,26.855,88.379
1734297496.933,7.812,31.250,26.855,20.020,39.551
1734297496.937,22.461,34.668,29.785,24.414,41.992
1734297496.941,22.949,33.203,33.691,34.180,82.031
1734297496.945,19.043,29.785,34.180,33.203,40.039
1734297496.949,23.926,31.250,32.227,23.438,11.719
1734297496.953,25.879,34.180,29.785,15.137,20.508
1734297496.957,27.344,34.180,26.367,23.438,19.531
1734297496.961,30.762,33.203,26.855,29.297,21.973
1734297496.965,34.180,35.645,31.250,5.371,47.363
1734297496.968,43.945,38.574,32.715,0.488,48.828
1734297496.972,25.879,41.016,35.645,23.438,-71.289
1734297496.976,-8.301,35.645,34.668,37.109,-38.086
1734297496.980,12.695,33.691,35.156,35.645,56.641
1734297496.984,38.574,36.621,39.551,27.344,54.688
1734297496.988,31.250,35.645,37.109,55.176,62.012
1734297496.992,33.691,38.086,35.156,62.988,48.828
1734297496.996,20.508,38.574,31.250,32.227,77.148
1734297497.000,11.719,37.598,27.832,9.277,76.172
1734297497.004,24.414,39.551,31.738,15.137,53.223
1734297497.008,30.273,45.410,38.086,40.039,-25.391
1734297497.011,43.945,41.992,34.668,38.086,-84.961
1734297497.015,50.293,35.156,31.250,22.949,-20.508
1734297497.019,39.062,40.039,36.133,22.949,66.406
1734297497.023,36.133,41.992,40.527,34.668,111.328
1734297497.027,14.160,36.133,40.039,52.246,64.941
1734297497.031,-3.418,32.227,34.668,39.062,32.715
1734297497.035,28.809,36.133,30.273,21.484,68.848
1734297497.039,62.012,42.969,27.344,39.551,108.887
1734297497.043,44.434,44.922,27.832,51.270,115.234
1734297497.047,31.738,46.875,29.785,32.227,41.992
1734297497.050,40.039,49.316,28.809,16.113,-25.391
1734297497.054,49.316,49.805,26.855,34.180,-10.254
1734297497.058,42.969,50.293,25.879,28.320,53.223
1734297497.062,16.113,48.340,28.320,38.574,18.066
1734297497.066,15.137,44.922,30.762,38.086,-104.004
1734297497.070,34.180,46.387,31.250,16.602,-41.992
1734297497.074,43.945,48.828,35.156,36.621,77.637
1734297497.078,43.457,49.316,36.133,36.621,71.777
1734297497.082,31.250,46.387,36.133,25.879,36.133
1734297497.086,7.812,45.410,38.086,35.645,18.555
1734297497.090,24.414,44.434,38.574,46.387,55.664
1734297497.093,34.180,40.527,36.621,42.969,80.078
1734297497.097,25.879,39.062,38.086,27.344,39.551
1734297497.101,27.344,38.574,37.109,15.625,-54.688
1734297497.105,22.461,36.621,32.715,11.719,-82.031
1734297497.109,11.719,35.156,28.320,28.320,25.879
1734297497.113,15.625,33.691,26.855,39.551,81.543
1734297497.117,20.996,37.598,25.391,16.602,48.828
1734297497.121,26.855,39.551,23.438,17.090,28.320
1734297497.125,33.691,38.574,30.273,32.715,67.383
1734297497.129,40.039,40.039,30.762,20.996,73.730
1734297497.133,29.785,38.574,28.320,20.996,57.617
1734297497.136,15.137,36.133,33.203,17.090,76.172
1734297497.140,29.785,36.621,29.785,24.414,64.453
1734297497.144,13.672,31.250,21.973,28.809,8.789
1734297497.148,5.859,27.832,22.461,15.625,-16.113
1734297497.152,27.832,30.273,21.973,18.555,48.340
1734297497.156,23.438,30.273,20.508,32.715,90.820
1734297497.160,14.160,31.738,22.949,29.297,-54.688
1734297497.164,18.066,34.180,23.926,19.531,-68.359
1734297497.168,30.273,30.273,26.367,18.066,52.734
1734297497.172,43.945,28.809,28.809,41.504,118.164
1734297497.175,45.410,31.738,30.273,56.641,89.355
1734297497.179,35.645,35.645,31.738,44.434,35.645
1734297497.183,31.738,32.715,34.668,29.785,70.801
1734297497.187,21.484,29.297,39.551,32.715,78.613
1734297497.191,48.340,35.156,47.363,54.199,61.035
1734297497.195,61.523,34.668,49.805,50.293,-50.293
1734297497.199,27.344,29.297,44.434,35.156,-127.441
1734297497.203,25.879,32.227,37.598,35.645,13.672
1734297497.207,32.227,32.227,37.109,52.734,104.492
1734297497.211,37.598,30.762,36.621,51.758,84.473
1734297497.215,47.363,32.715,30.273,33.691,24.902
1734297497.218,24.902,30.273,30.273,34.668,32.227
1734297497.222,18.066,28.320,36.133,44.434,93.262
1734297497.226,28.320,28.809,38.574,62.988,93.262
1734297497.230,27.344,30.273,45.410,54.199,72.754
1734297497.234,33.691,33.203,49.316,18.555,-4.883
1734297497.238,45.410,35.156,47.363,20.996,-16.602
1734297497.242,24.414,35.156,45.410,31.738,17.090
1734297497.246,12.207,33.691,41.992,23.926,16.113
1734297497.250,34.180,35.645,43.457,16.113,29.297
1734297497.254,25.879,38.086,47.363,15.137,-85.449
1734297497.257,16.602,38.086,47.852,39.062,-43.457
1734297497.261,15.625,39.062,48.828,37.598,62.988
1734297497.265,15.625,39.062,50.781,3.906,73.242
1734297497.269,20.996,38.574,52.734,4.883,89.844
1734297497.273,24.902,39.062,53.223,16.602,62.012
1734297497.277,26.367,39.062,51.270,32.227,85.938
1734297497.281,18.555,36.133,50.293,38.086,48.828
1734297497.285,10.742,34.180,53.711,27.832,-22.461
1734297497.289,12.695,38.086,54.688,22.949,-61.035
1734297497.293,26.855,40.527,49.316,29.785,-123.535
1734297497.297,19.043,35.156,42.969,32.715,-28.809
1734297497.300,5.371,30.762,42.480,22.949,55.664
1734297497.304,4.883,31.738,43.457,26.367,82.520
1734297497.308,6.348,31.250,41.992,27.344,77.637
1734297497.312,24.414,26.367,38.086,25.391,59.570
1734297497.316,13.184,25.879,36.133,33.203,71.777
1734297497.320,13.184,32.227,40.039,36.621,85.449
1734297497.324,36.621,37.109,42.969,41.504,82.520
1734297497.328,33.691,34.668,43.945,33.203,45.410
1734297497.332,10.742,33.203,44.434,26.367,2.441
1734297497.336,12.695,34.180,45.898,29.297,-20.996
1734297497.340,28.809,38.086,45.898,29.785,45.410
1734297497.343,28.320,41.504,47.363,43.945,84.961
1734297497.347,27.832,38.574,51.270,28.809,-60.059
1734297497.351,27.344,35.645,49.805,3.418,-92.285
1734297497.355,30.273,34.180,48.828,20.508,42.969
1734297497.359,32.715,32.715,45.410,46.875,84.961
1734297497.363,10.742,32.715,40.527,56.152,40.039
1734297497.367,24.414,32.715,42.969,29.785,0.977
1734297497.371,53.711,31.738,44.922,22.949,63.965
1734297497.375,14.648,28.320,41.504,36.621,99.121
1734297497.379,3.906,25.391,37.598,37.598,35.156
1734297497.382,23.926,24.902,32.715,28.809,-65.918
1734297497.386,22.461,28.320,29.785,14.160,-87.891
1734297497.390,28.320,27.832,29.297,26.367,38.086
1734297497.394,29.297,24.902,27.832,49.805,77.637
1734297497.398,9.277,27.344,27.832,27.344,44.434
1734297497.402,7.812,32.227,32.227,14.160,49.316
1734297497.406,16.602,36.133,34.180,17.090,64.941
1734297497.410,28.809,33.691,33.203,16.113,33.691
1734297497.414,30.762,27.344,33.203,27.832,29.297
1734297497.418,32.227,25.879,34.180,23.926,63.965
1734297497.422,30.273,25.391,33.203,30.762,68.848
1734297497.425,9.277,24.414,31.738,41.016,24.414
1734297497.429,6.348,24.902,28.320,25.879,-40.527
1734297497.433,23.926,24.902,25.391,18.555,22.461
1734297497.437,25.391,27.344,31.250,24.902,83.496
1734297497.441,33.203,26.367,35.156,41.016,-35.645
1734297497.445,36.133,25.391,29.297,31.250,-26.367
1734297497.449,35.156,28.320,26.855,17.578,57.617
1734297497.453,39.062,29.297,27.832,25.879,45.410
1734297497.457,41.992,33.203,27.344,34.668,42.480
1734297497.461,41.016,34.180,26.855,55.176,52.734
1734297497.465,39.062,34.180,27.832,40.039,39.551
1734297497.468,56.152,34.668,25.879,5.859,10.254
1734297497.472,60.547,32.715,22.949,25.391,22.461
1734297497.476,41.992,31.250,26.367,43.457,-41.504
1734297497.480,26.855,28.320,29.297,19.531,-104.492
1734297497.484,24.902,22.949,27.832,5.371,-13.184
1734297497.488,25.391,23.438,28.809,17.578,78.613
1734297497.492,25.391,21.973,28.809,37.598,100.098
1734297497.496,31.250,20.508,30.762,35.156,36.621
1734297497.500,33.691,21.484,33.203,20.020,42.969
1734297497.504,31.738,20.020,32.227,19.043,96.191
1734297497.507,26.855,20.020,33.203,27.832,77.148
1734297497.511,34.180,20.996,35.645,29.297,72.754
1734297497.515,31.738,23.926,38.086,23.926,51.758
1734297497.519,35.156,27.344,37.109,26.367,7.812
1734297497.523,39.062,26.855,34.180,31.250,0.977
1734297497.527,27.832,30.762,34.668,40.039,9.766
1734297497.531,32.715,35.645,38.574,43.945,25.879
1734297497.535,20.508,34.668,43.945,31.250,-74.219
1734297497.539,18.555,35.156,42.480,23.926,-23.438
1734297497.543,25.879,39.062,42.480,22.949,96.191
1734297497.547,6.836,36.133,36.621,11.230,52.734
1734297497.550,-5.371,34.180,27.344,-10.742,15.137
1734297497.554,-12.695,35.645,31.250,-13.184,22.461
1734297497.558,-28.320,35.645,34.180,0.977,100.098
1734297497.562,-35.645,33.691,28.809,-20.508,54.688
1734297497.566,-34.180,36.133,34.180,-52.734,-13.184
1734297497.570,-31.738,42.480,37.598,-55.664,-47.363
1734297497.574,-47.852,42.969,32.227,-45.898,-59.570
1734297497.578,-70.312,36.133,28.809,-55.176,23.438
1734297497.582,-75.684,31.250,27.832,-80.078,30.762
1734297497.586,-101.562,34.180,22.461,-89.844,54.688
1734297497.589,-124.023,35.156,18.555,-109.375,64.941
1734297497.593,-127.930,31.250,22.949,-112.793,46.387
1734297497.597,-159.180,27.344,22.461,-213.867,69.336
1734297497.601,-171.387,26.855,24.414,-294.922,83.008
1734297497.605,-167.480,33.691,25.879,-197.266,94.727
1734297497.609,-171.387,43.945,20.020,-142.090,41.992
1734297497.613,-167.969,49.316,19.043,-151.367,-15.137
1734297497.617,-174.316,49.316,21.973,-179.199,-30.273
1734297497.621,-138.184,47.363,22.949,-167.969,26.367
1734297497.625,-133.301,43.945,23.438,-132.812,92.285
1734297497.629,-162.598,43.945,29.297,-139.648,-55.176
1734297497.632,-149.902,47.363,29.297,-137.207,-101.562
1734297497.636,-131.836,48.340,28.320,-127.441,44.922
1734297497.640,-113.281,48.828,27.832,-129.883,70.312
1734297497.644,-104.980,48.828,25.391,-110.352,21.484
1734297497.648,-104.004,44.922,27.344,-106.445,8.301
1734297497.652,-92.285,45.410,25.391,-102.051,59.082
1734297497.656,-54.688,48.828,25.879,-82.520,105.469
1734297497.660,-49.316,45.898,28.809,-55.664,81.543
1734297497.664,-42.480,46.387,23.438,-47.852,-52.246
1734297497.668,-24.414,47.363,20.508,-60.059,-100.098
1734297497.672,-28.320,43.945,23.926,-32.227,30.273
1734297497.675,-29.297,40.527,30.273,-10.254,100.098
1734297497.679,-28.320,39.551,32.227,-24.414,82.520
1734297497.683,-21.973,40.039,29.297,-19.043,25.879
1734297497.687,-4.883,39.062,26.855,-8.789,47.852
1734297497.691,8.789,37.598,29.785,20.508,99.121
1734297497.695,19.043,36.621,37.109,35.156,80.566
1734297497.699,38.086,38.574,42.480,30.273,25.391
1734297497.703,36.133,39.062,37.109,38.574,6.836
1734297497.707,29.785,37.598,31.250,43.945,5.371
1734297497.711,41.992,38.574,28.809,47.852,-9.766
1734297497.714,66.895,37.598,24.902,55.664,32.227
1734297497.718,65.430,35.156,26.367,71.777,37.598
1734297497.722,70.801,33.203,31.738,81.055,-61.523
1734297497.726,93.750,32.227,33.691,92.773,-45.898
1734297497.730,89.355,31.250,31.738,105.957,55.176
1734297497.734,86.914,27.832,26.855,91.309,83.008
1734297497.738,92.285,24.414,28.320,94.238,63.477
1734297497.742,90.820,23.926,29.297,124.023,55.664
1734297497.746,100.098,21.973,25.391,128.418,92.773
1734297497.750,115.723,18.066,24.414,115.723,71.289
1734297497.754,119.629,16.113,20.996,100.586,41.016
1734297497.757,115.723,19.531,21.973,118.164,-21.484
1734297497.761,120.605,24.414,26.855,136.719,-71.289
1734297497.765,117.188,28.320,30.273,117.188,-2.441
1734297497.769,110.840,28.809,32.227,109.863,49.316
1734297497.773,112.305,28.320,32.227,125.000,84.961
1734297497.777,105.469,30.762,33.691,129.883,48.340
1734297497.781,117.676,28.809,32.715,122.070,38.086
1734297497.785,124.023,25.879,34.668,120.605,78.613
1734297497.789,121.094,24.902,39.551,133.301,98.633
1734297497.793,117.188,29.297,41.504,128.418,104.492
1734297497.797,103.516,28.809,42.969,108.887,34.668
1734297497.800,99.609,21.973,42.969,103.516,-13.184
1734297497.804,111.816,20.508,38.574,103.027,8.301
1734297497.808,85.938,24.414,35.645,109.863,81.543
1734297497.812,66.406,29.297,35.645,107.422,66.895
1734297497.816,80.078,29.297,34.668,95.215,-106.445
1734297497.820,87.402,27.344,33.203,90.820,-55.664
1734297497.824,90.820,24.414,34.668,95.215,98.145
1734297497.828,81.543,19.531,33.203,102.539,77.637
1734297497.832,81.543,19.531,32.227,89.355,11.230
1734297497.836,89.844,23.438,33.203,72.754,-12.207
1734297497.839,103.516,29.297,33.203,88.867,55.176
1734297497.843,90.820,33.203,32.715,104.004,70.312
1734297497.847,68.848,33.691,36.133,75.684,30.762
1734297497.851,53.223,31.250,38.086,54.688,-65.918
1734297497.855,61.035,30.762,40.039,75.195,-100.586
1734297497.859,78.613,30.762,39.551,96.680,28.320
1734297497.863,82.031,32.715,41.992,96.191,68.359
1734297497.867,73.730,32.227,42.480,73.730,58.594
1734297497.871,63.965,28.809,37.598,68.359,19.531
1734297497.875,65.918,30.762,32.227,79.590,13.184
1734297497.879,71.289,32.227,26.367,77.637,53.223
1734297497.882,64.453,31.250,24.902,59.570,50.781
1734297497.886,68.848,32.227,27.832,57.129,58.594
1734297497.890,79.102,34.668,29.785,74.219,44.434
1734297497.894,58.594,32.715,28.809,79.102,1.465
1734297497.898,40.039,29.785,28.320,65.430,-37.598
1734297497.902,57.617,30.762,28.809,51.270,31.738
1734297497.906,82.520,34.180,29.785,61.523,76.660
1734297497.910,77.637,34.180,32.715,75.195,-52.246
1734297497.914,49.805,27.344,30.273,59.082,-46.875
1734297497.918,41.016,24.414,29.785,41.992,73.730
1734297497.922,48.340,21.973,30.273,56.152,106.445
1734297497.925,43.457,23.926,28.809,70.312,73.242
1734297497.929,44.922,26.855,31.738,62.988,-8.789
1734297497.933,52.734,27.344,33.691,52.246,0.488
1734297497.937,49.805,31.250,35.645,57.129,40.527
1734297497.941,60.547,32.715,40.039,74.707,40.039
1734297497.945,62.988,29.297,41.992,76.660,-14.160
1734297497.949,43.945,27.344,41.992,42.480,-98.633
1734297497.953,49.805,29.785,40.527,36.133,-8.301
1734297497.957,48.828,32.227,40.039,57.617,102.051
1734297497.961,38.086,28.809,42.480,65.918,129.883
1734297497.964,52.246,31.738,44.922,49.316,64.941
1734297497.968,56.152,31.738,42.969,31.250,29.297
1734297497.972,59.570,29.297,44.434,52.734,69.336
1734297497.976,56.152,30.273,47.852,69.336,86.914
1734297497.980,40.527,28.809,44.922,60.547,55.664
1734297497.984,46.387,32.715,46.875,50.781,9.766
1734297497.988,62.012,35.156,47.852,46.875,7.324
1734297497.992,52.246,31.738,43.457,56.641,-0.977
1734297497.996,23.926,30.762,43.945,56.152,8.301
1734297498.000,29.297,31.738,46.387,44.434,40.527
1734297498.004,50.781,34.180,48.828,33.691,-51.758
1734297498.007,52.734,31.250,46.387,36.133,-28.809
1734297498.011,59.082,27.832,44.922,56.152,67.383
1734297498.015,46.387,30.273,41.992,61.523,60.547
1734297498.019,27.832,35.156,40.039,44.922,34.180
1734297498.023,50.293,37.598,39.551,36.621,35.156
1734297498.027,51.270,38.086,40.527,50.293,69.824
1734297498.031,45.898,38.574,40.039,48.828,66.406
1734297498.035,48.828,39.062,35.645,41.992,37.109
1734297498.039,49.316,39.062,39.062,52.734,-40.527
1734297498.043,52.246,40.039,41.016,51.758,-71.777
1734297498.046,62.500,43.945,39.062,36.621,-10.742
1734297498.050,49.316,44.434,35.156,44.922,48.828
1734297498.054,36.133,40.527,33.691,54.199,108.398
1734297498.058,47.363,39.062,34.180,55.664,93.262
1734297498.062,43.945,42.480,34.668,42.480,59.082
1734297498.066,23.438,40.527,35.645,26.367,51.758
1734297498.070,21.973,34.180,36.621,39.551,68.848
1734297498.074,35.645,31.738,34.668,44.434,91.797
1734297498.078,36.621,33.691,30.762,36.133,39.062
1734297498.082,36.133,36.133,27.832,25.391,-2.441
1734297498.086,30.273,38.086,29.297,24.414,3.418
1734297498.089,25.391,38.574,28.809,35.645,23.438
1734297498.093,42.480,36.133,24.902,43.945,50.781
1734297498.097,43.457,35.156,21.484,39.551,-89.355
1734297498.101,11.230,30.762,18.555,26.855,-63.965
1734297498.105,16.602,31.738,19.531,25.391,68.359
1734297498.109,43.945,38.574,21.484,32.715,71.289
1734297498.113,26.367,37.109,20.508,34.668,41.504
1734297498.117,16.113,32.715,20.508,48.340,-4.883
1734297498.121,31.738,35.156,20.508,41.016,67.383
1734297498.125,34.180,37.109,20.996,17.578,96.680
1734297498.129,49.316,37.109,20.020,20.996,36.621
1734297498.132,45.898,33.203,21.973,16.113,-66.406
1734297498.136,28.320,30.273,20.020,20.996,-93.750
1734297498.140,36.621,32.715,18.555,37.109,29.785
1734297498.144,41.504,33.691,22.949,44.922,111.328
1734297498.148,40.039,28.809,24.902,42.480,91.797
1734297498.152,41.992,29.297,24.902,32.227,16.113
1734297498.156,42.480,29.297,26.855,57.129,55.176
1734297498.160,29.785,26.367,27.344,55.664,83.984
1734297498.164,7.324,23.926,26.367,23.438,15.625
1734297498.168,6.836,25.391,24.414,25.391,49.316
1734297498.171,25.391,29.785,26.855,34.180,66.406
1734297498.175,28.809,29.785,27.344,35.156,41.016
1734297498.179,25.391,29.297,27.832,29.297,11.719
1734297498.183,25.391,29.785,30.762,25.391,28.809
1734297498.187,30.273,28.809,29.297,33.691,76.172
1734297498.191,44.434,30.273,26.367,39.062,-32.715
1734297498.195,43.457,30.762,25.879,41.992,-61.523
1734297498.199,23.438,30.273,27.832,43.457,16.113
1734297498.203,13.184,31.738,31.250,34.180,62.012
1734297498.207,21.484,32.227,29.297,31.250,69.336
1734297498.211,36.133,32.715,30.762,40.527,17.090
1734297498.214,22.461,31.250,34.180,39.551,38.574
1734297498.218,27.832,31.738,35.156,25.391,19.531
1734297498.222,31.250,34.668,33.203,33.691,10.254
1734297498.226,30.762,36.621,33.691,35.645,-39.551
1734297498.230,22.461,36.133,35.156,21.973,-113.281
1734297498.234,13.672,31.738,38.086,18.066,-8.789
1734297498.238,18.555,33.691,41.992,24.414,91.309
1734297498.242,25.879,37.598,39.551,42.969,108.398
1734297498.246,36.133,36.133,38.086,45.898,48.340
1734297498.250,21.973,37.598,39.551,38.574,20.508
1734297498.254,31.250,39.062,38.086,37.598,51.270
1734297498.257,35.645,37.598,36.133,39.551,83.496
1734297498.261,35.156,34.668,37.598,44.434,94.238
1734297498.265,35.156,35.156,39.062,40.039,28.809
1734297498.269,28.809,38.086,35.156,25.391,-12.207
1734297498.273,40.039,37.109,33.203,49.805,41.992
1734297498.277,39.062,35.645,35.645,60.059,49.805
1734297498.281,34.668,38.574,39.062,43.945,1.953
1734297498.285,37.109,40.527,38.086,41.504,-87.891
1734297498.289,39.062,40.527,30.273,39.062,-51.758
1734297498.293,32.227,35.156,28.809,42.969,76.660
1734297498.296,30.762,30.273,32.227,41.504,41.992
1734297498.300,46.387,28.809,34.668,40.039,14.160
1734297498.304,56.152,25.879,30.762,28.320,35.156
1734297498.308,36.621,25.391,28.809,38.086,97.656
1734297498.312,10.742,26.367,32.227,42.480,72.754
1734297498.316,5.859,29.297,34.668,25.879,18.555
1734297498.320,22.949,32.227,37.598,19.043,-36.133
1734297498.324,36.133,32.227,36.133,26.367,-62.988
1734297498.328,25.879,33.203,31.738,35.156,28.320
1734297498.332,18.066,35.156,31.738,35.156,70.801
1734297498.336,27.344,36.621,32.715,26.855,24.902
1734297498.339,38.574,35.156,29.785,42.480,18.555
1734297498.343,44.922,29.785,26.367,47.363,49.805
1734297498.347,41.016,27.832,25.879,20.508,37.109
1734297498.351,42.480,31.738,25.879,7.324,61.035
1734297498.355,45.898,34.180,27.344,26.367,93.750
1734297498.359,30.762,32.715,28.809,53.711,62.500
1734297498.363,28.320,31.738,29.785,42.480,-15.137
1734297498.367,36.133,28.809,29.297,29.785,-58.105
1734297498.371,58.105,27.832,26.855,44.922,40.527
1734297498.375,48.828,25.879,30.762,59.570,97.656
1734297498.378,21.484,21.973,37.109,53.223,-67.383
1734297498.382,41.992,22.461,32.227,37.109,-98.145
1734297498.386,46.875,25.391,29.785,38.086,53.223
1734297498.390,31.250,28.320,35.156,36.621,113.281
1734297498.394,25.879,26.855,36.621,43.457,43.457
1734297498.398,21.484,26.367,33.203,44.922,-17.090
1734297498.402,29.297,26.367,32.227,36.133,48.340
1734297498.406,30.273,24.414,33.691,31.738,73.730
1734297498.410,20.508,23.438,35.156,35.645,63.477
1734297498.414,21.973,27.344,38.086,35.156,-19.531
1734297498.418,27.344,28.809,33.691,27.832,-104.492
1734297498.421,26.367,26.855,32.227,39.551,11.230
1734297498.425,31.250,25.879,37.598,52.734,113.281
1734297498.429,20.020,25.879,35.645,44.922,92.285
1734297498.433,32.715,24.902,35.156,33.203,45.410
1734297498.437,19.531,23.926,35.156,28.320,55.664
1734297498.441,2.930,25.879,31.738,26.367,87.891
1734297498.445,33.203,27.344,28.320,41.992,68.848
1734297498.449,39.062,26.855,26.367,31.738,47.852
1734297498.453,32.715,26.367,30.273,12.695,25.391
1734297498.457,50.293,29.785,34.180,33.203,16.602
1734297498.461,36.621,31.250,28.809,53.223,17.090
1734297498.464,-0.977,28.320,27.344,35.156,55.664
1734297498.468,6.348,24.902,30.762,4.395,74.219
1734297498.472,35.156,29.785,34.668,16.602,-50.781
1734297498.476,43.945,35.645,33.203,39.062,-34.668
1734297498.480,27.832,31.738,28.320,36.133,55.176
1734297498.484,36.133,29.785,25.879,20.020,38.086
1734297498.488,54.199,31.250,25.879,26.367,28.809
1734297498.492,36.133,32.227,29.297,37.109,21.484
1734297498.496,15.137,30.273,28.809,33.203,46.387
1734297498.500,9.766,30.762,28.809,23.926,33.203
1734297498.503,28.320,31.250,24.414,12.695,33.203
1734297498.507,36.133,29.785,23.926,18.066,-25.879
1734297498.511,29.785,31.738,27.344,24.414,-102.539
1734297498.515,15.625,31.738,27.344,15.625,-29.785
1734297498.519,10.742,29.785,31.738,17.090,56.641
1734297498.523,16.113,32.227,32.227,26.367,114.258
1734297498.527,17.090,34.180,31.250,26.855,66.895
1734297498.531,16.602,30.762,30.762,18.066,20.508
1734297498.535,15.137,29.297,30.762,10.254,46.875
1734297498.539,15.625,30.762,26.367,20.996,77.637
1734297498.543,19.531,29.785,24.414,31.738,60.059
1734297498.546,38.574,26.855,27.832,20.996,-6.348
1734297498.550,30.273,27.832,25.879,12.695,-36.621
1734297498.554,19.043,27.832,24.902,21.973,-19.531
1734297498.558,23.438,25.391,25.879,36.621,47.852
1734297498.562,12.695,26.367,30.273,36.133,61.035
1734297498.566,23.926,27.832,34.668,10.254,-82.031
1734297498.570,27.344,22.949,30.273,3.906,-61.523
1734297498.574,35.645,22.949,28.320,32.227,94.238
1734297498.578,44.434,28.320,28.809,49.805,98.145
1734297498.582,25.879,28.809,32.227,29.297,29.785
1734297498.586,27.832,25.879,33.691,19.531,11.230
1734297498.589,43.945,22.461,31.250,39.551,86.426
1734297498.593,32.715,23.438,34.668,46.875,94.727
1734297498.597,9.277,25.879,38.574,34.180,31.250
1734297498.601,16.113,26.367,43.457,27.832,-48.828
1734297498.605,34.180,23.438,42.480,30.273,-85.449
1734297498.609,38.086,21.973,37.109,23.926,39.551
1734297498.613,18.066,22.461,34.180,28.809,82.520
1734297498.617,8.789,21.973,32.715,31.738,50.781
1734297498.621,20.020,25.391,31.738,20.508,57.129
1734297498.625,16.113,24.414,30.762,15.625,56.152
1734297498.628,12.207,22.949,29.785,27.832,46.387
1734297498.632,4.883,24.414,29.785,28.320,70.801
1734297498.636,15.625,25.391,33.203,14.648,74.707
1734297498.640,28.320,28.320,38.574,18.066,48.340
1734297498.644,9.277,27.344,37.598,25.879,24.414
1734297498.648,10.254,27.344,33.203,26.855,-39.551
1734297498.652,19.043,30.273,32.227,19.043,4.395
1734297498.656,13.672,25.879,34.180,36.133,95.703
1734297498.660,13.184,25.391,35.156,52.246,-41.016
1734297498.664,19.043,26.367,30.762,33.203,-71.289
1734297498.668,34.668,23.438,27.344,24.414,45.898
1734297498.671,27.344,27.344,32.715,42.969,74.219
1734297498.675,17.090,28.809,38.574,54.688,62.500
1734297498.679,18.066,27.344,36.133,32.227,17.090
1734297498.683,11.230,27.344,32.715,12.695,-5.859
1734297498.687,25.391,29.297,38.086,26.367,17.090
1734297498.691,22.461,29.297,39.551,39.062,54.688
1734297498.695,12.207,30.762,35.645,32.715,-39.062
1734297498.699,34.180,32.715,35.645,5.859,-119.141
1734297498.703,30.273,28.809,34.668,3.418,-20.508
1734297498.707,16.113,31.738,34.180,26.367,78.125
1734297498.710,31.250,35.156,38.086,41.992,70.312
1734297498.714,27.832,35.645,41.992,32.227,17.578
1734297498.718,14.648,33.691,39.551,-4.395,8.301
1734297498.722,6.348,30.762,36.621,0.000,61.523
1734297498.726,5.371,32.715,37.598,30.273,77.637
1734297498.730,29.785,31.738,39.062,23.438,47.852
1734297498.734,40.039,29.297,38.086,11.719,30.762
1734297498.738,28.320,30.273,38.574,16.602,27.344
1734297498.742,22.949,33.691,41.016,22.949,11.719
1734297498.746,21.484,37.109,43.457,35.156,26.855
1734297498.750,42.969,36.621,42.480,32.227,53.711
1734297498.753,24.902,34.180,43.945,36.621,-62.988
1734297498.757,8.301,28.320,45.410,28.809,-31.250
1734297498.761,31.738,24.414,42.480,13.672,63.477
1734297498.765,16.113,27.832,42.480,15.625,35.156
1734297498.769,15.625,28.809,40.527,18.555,21.973
1734297498.773,37.109,28.320,39.551,37.109,31.250
1734297498.777,32.715,26.367,36.133,39.551,101.562
1734297498.781,42.480,28.809,35.156,28.320,81.543
1734297498.785,24.414,29.785,37.109,27.344,34.668
1734297498.789,19.043,27.832,36.621,31.738,-20.020
1734297498.793,23.438,30.762,35.645,38.086,-49.316
1734297498.796,7.812,28.809,32.715,16.602,52.734
1734297498.800,22.461,24.902,30.273,10.742,45.410
1734297498.804,32.227,25.391,29.785,32.715,35.156
1734297498.808,15.625,27.344,30.273,32.227,85.938
1734297498.812,10.254,30.762,30.273,23.926,70.801
1734297498.816,19.531,31.250,26.367,19.531,63.477
1734297498.820,19.531,29.297,21.484,26.855,66.895
1734297498.824,19.043,26.855,23.926,31.250,81.055
1734297498.828,35.645,24.414,24.902,28.809,52.246
1734297498.832,42.969,26.367,24.902,24.414,-5.859
1734297498.835,16.602,28.320,25.879,12.695,-20.020
1734297498.839,19.531,29.297,24.902,15.137,41.504
1734297498.843,21.484,31.250,22.949,35.156,68.359
1734297498.847,19.043,29.785,21.973,42.969,-78.125
1734297498.851,26.855,29.297,21.484,27.832,-54.199
1734297498.855,22.461,31.738,25.391,11.230,95.215
1734297498.859,28.320,30.273,28.320,30.273,65.918
1734297498.863,33.691,28.320,31.250,41.504,20.508
1734297498.867,36.621,33.203,35.645,24.902,20.020
1734297498.871,25.879,37.109,36.621,27.344,75.195
1734297498.875,23.926,36.133,37.598,33.691,83.496
1734297498.878,33.691,37.598,37.598,32.715,24.414
1734297498.882,33.691,38.086,38.574,28.809,-61.523
1734297498.886,23.926,36.621,37.598,19.043,-113.770
1734297498.890,30.762,31.738,36.621,28.809,10.254
1734297498.894,18.555,29.297,36.133,23.926,73.242
1734297498.898,4.883,27.344,34.180,13.184,32.227
1734297498.902,26.855,27.344,36.621,10.742,19.531
1734297498.906,34.180,24.414,36.621,30.273,40.527
1734297498.910,20.996,22.461,38.574,55.176,81.055
1734297498.914,22.461,21.484,43.457,29.297,67.871
1734297498.918,30.762,22.461,45.410,13.672,23.438
1734297498.921,43.457,24.902,41.504,28.320,23.438
1734297498.925,31.250,25.391,38.574,33.203,1.953
1734297498.929,27.344,30.762,40.527,31.738,-1.465
1734297498.933,31.738,37.109,38.574,14.648,43.457
1734297498.937,22.949,41.016,36.133,12.695,73.242
1734297498.941,42.480,42.480,35.645,32.715,-32.715
1734297498.945,30.762,36.133,34.180,34.180,-28.320
1734297498.949,12.207,28.809,34.668,30.273,75.195
1734297498.953,25.391,28.809,36.133,25.391,78.613
1734297498.957,35.156,35.645,33.203,29.297,56.152
1734297498.960,32.715,36.621,29.785,42.969,51.758
1734297498.964,48.340,34.180,30.762,34.668,72.266
1734297498.968,40.527,35.645,29.297,34.668,72.266
1734297498.972,20.020,36.133,29.785,35.156,70.312
1734297498.976,24.902,35.645,34.180,24.902,-34.668
1734297498.980,22.461,36.621,34.668,32.715,-104.492
1734297498.984,8.789,34.668,32.715,28.320,0.000
1734297498.988,21.973,31.250,34.180,29.785,80.566
1734297498.992,51.270,30.762,34.180,39.551,106.445
1734297498.996,41.016,32.715,31.738,42.480,55.176
1734297499.000,33.691,34.668,34.180,36.133,9.766
1734297499.003,35.645,38.574,34.180,43.457,62.012
1734297499.007,28.320,36.133,29.297,49.805,100.098
1734297499.011,38.086,32.227,30.273,40.527,74.219
1734297499.015,32.715,30.762,29.785,25.879,32.715
1734297499.019,14.160,28.809,29.785,17.578,6.348
1734297499.023,9.766,29.785,32.227,30.273,10.742
1734297499.027,18.066,31.738,30.762,27.832,69.336
1734297499.031,23.438,30.762,33.691,11.719,43.457
1734297499.035,19.043,28.320,38.574,13.184,-109.375
1734297499.039,43.945,27.832,36.621,23.926,-44.434
1734297499.042,62.988,30.273,35.156,44.922,100.098
1734297499.046,47.363,28.320,37.109,40.527,95.703
1734297499.050,26.367,25.391,38.086,28.809,50.781
1734297499.054,27.344,27.344,38.086,32.715,22.461
1734297499.058,19.531,26.367,33.691,20.996,72.754
1734297499.062,19.531,24.414,30.273,27.832,56.152
1734297499.066,32.227,23.926,34.180,25.391,18.066
1734297499.070,9.766,24.414,38.086,8.301,-44.434
1734297499.074,14.160,26.855,37.598,20.508,-84.473
1734297499.078,32.715,24.414,32.715,35.645,24.902
1734297499.082,21.973,26.855,33.203,22.949,86.914
1734297499.085,15.625,30.273,37.598,10.254,65.918
1734297499.089,25.391,32.715,34.180,29.297,48.828
1734297499.093,26.855,34.668,32.715,58.594,92.285
1734297499.097,35.156,34.180,38.574,50.293,104.980
1734297499.101,29.297,34.668,39.551,18.555,103.027
1734297499.105,12.207,33.691,36.133,7.812,103.027
1734297499.109,25.391,29.785,38.086,23.926,55.176
1734297499.113,39.062,28.320,39.062,41.504,0.000
1734297499.117,23.926,29.785,38.086,34.668,-31.250
1734297499.121,29.785,32.227,35.645,28.320,18.066
1734297499.125,35.645,33.203,35.156,34.668,97.168
1734297499.128,43.457,37.109,34.180,36.133,-53.711
1734297499.132,36.621,39.062,28.809,35.645,-94.727
1734297499.136,34.668,35.645,27.832,39.062,41.016
1734297499.140,41.992,39.551,28.809,40.039,64.941
1734297499.144,34.668,40.039,28.320,35.156,39.062
1734297499.148,39.551,31.738,26.367,22.461,-31.738
1734297499.152,18.555,29.297,26.855,24.902,40.527
1734297499.156,18.555,32.227,30.762,34.668,116.699
1734297499.160,38.574,33.203,29.785,36.133,77.637
1734297499.164,38.086,33.691,31.738,30.273,-37.109
1734297499.167,40.527,33.203,34.668,22.461,-122.070
1734297499.171,38.574,28.320,30.273,31.738,5.859
1734297499.175,25.391,26.367,31.738,44.434,105.957
1734297499.179,25.879,25.391,33.203,45.898,78.613
1734297499.183,24.414,26.855,34.668,18.555,30.762
1734297499.187,29.785,32.227,39.551,28.320,67.871
1734297499.191,29.297,32.715,43.457,47.852,107.422
1734297499.195,29.297,31.250,41.992,35.645,79.102
1734297499.199,29.785,32.715,40.039,37.109,46.387
1734297499.203,28.320,34.180,41.992,10.742,14.648
1734297499.207,25.879,33.203,45.898,8.301,6.348
1734297499.210,26.855,32.715,43.945,33.691,-8.789
1734297499.214,14.160,30.273,42.480,30.273,-14.160
1734297499.218,2.441,25.391,39.062,22.949,45.898
1734297499.222,21.973,28.320,35.156,29.785,-27.832
1734297499.226,31.250,33.203,33.203,31.250,-36.133
1734297499.230,23.438,32.715,29.297,35.156,76.172
1734297499.234,15.625,30.273,30.762,28.320,71.289
1734297499.238,5.371,31.738,28.809,21.973,49.316
1734297499.242,19.043,33.691,26.855,37.109,47.363
1734297499.246,55.176,30.762,28.809,32.227,71.777
1734297499.250,38.574,31.250,33.203,20.996,66.406
1734297499.253,-3.418,29.297,35.156,11.719,41.992
1734297499.257,6.836,26.855,36.621,23.438,-10.742
1734297499.261,20.508,27.344,35.156,36.621,-124.512
1734297499.265,19.531,26.855,34.668,23.926,-90.332
1734297499.269,25.391,28.809,38.086,24.902,53.223
1734297499.273,28.809,29.297,35.156,40.527,105.469
1734297499.277,21.484,28.320,27.344,47.363,79.590
1734297499.281,14.648,28.809,29.297,27.344,56.152
1734297499.285,33.203,27.344,35.156,21.484,77.148
1734297499.289,41.016,27.344,36.133,49.316,86.426
1734297499.292,40.527,29.785,40.039,45.898,87.402
1734297499.296,27.344,31.250,39.062,25.391,72.266
1734297499.300,11.230,30.762,35.156,15.625,21.484
1734297499.304,18.066,29.297,36.621,29.785,-1.953
1734297499.308,17.090,31.250,39.062,55.176,49.316
1734297499.312,19.043,31.738,40.039,51.758,67.383
1734297499.316,31.738,32.715,39.551,26.855,-73.242
1734297499.320,25.879,33.203,37.109,10.742,-86.426
1734297499.324,53.711,31.738,34.668,19.043,35.156
1734297499.328,41.992,34.180,33.203,37.598,60.059
1734297499.332,-9.766,32.227,35.645,39.551,28.809
1734297499.335,7.324,30.273,36.621,19.043,15.625
1734297499.339,29.297,32.715,33.691,20.020,81.055
1734297499.343,28.809,31.738,32.227,44.434,94.238
1734297499.347,21.973,31.738,32.227,35.156,25.879
1734297499.351,27.832,32.227,36.621,29.785,-61.523
1734297499.355,41.504,30.762,39.062,43.457,-83.008
1734297499.359,32.227,24.902,30.273,30.273,35.156
1734297499.363,24.414,22.461,24.414,20.996,77.637
1734297499.367,33.203,19.531,24.902,18.555,52.246
1734297499.371,13.672,21.973,27.344,31.738,40.039
1734297499.374,22.949,22.949,28.320,39.062,91.797
1734297499.378,35.645,22.949,25.391,12.695,62.500
1734297499.382,1.465,24.902,24.414,12.695,35.156
1734297499.386,22.461,18.555,27.344,22.461,85.449
1734297499.390,26.367,20.020,24.902,21.973,50.781
1734297499.394,1.465,25.391,25.391,25.879,-9.766
1734297499.398,16.602,26.855,28.809,15.625,-28.809
1734297499.402,26.367,26.367,28.809,17.578,30.762
1734297499.406,25.391,26.855,28.320,30.762,65.430
1734297499.410,16.113,29.785,25.879,21.484,-62.500
1734297499.414,6.348,24.414,26.855,12.207,-66.895
1734297499.417,14.648,23.926,29.297,17.090,24.414
1734297499.421,31.250,32.227,29.297,24.414,84.961
1734297499.425,26.367,34.180,24.902,26.367,108.398
1734297499.429,25.879,33.203,21.484,21.973,47.852
1734297499.433,35.645,37.598,20.020,3.418,57.129
1734297499.437,22.949,39.551,20.508,-0.488,41.504
1734297499.441,18.066,40.039,24.414,19.043,32.715
1734297499.445,23.926,38.574,21.484,35.645,-26.367
1734297499.449,-0.977,36.133,18.555,27.832,-82.031
1734297499.453,-5.859,38.574,20.996,8.789,5.371
1734297499.457,29.785,36.621,20.508,14.648,54.688
1734297499.460,28.320,33.203,19.531,32.715,71.289
1734297499.464,21.484,35.645,22.949,27.832,44.434
1734297499.468,25.391,35.645,24.902,13.184,23.438
1734297499.472,20.020,37.109,27.344,19.043,78.613
1734297499.476,31.250,37.109,32.227,22.461,99.609
1734297499.480,49.805,39.551,34.668,31.250,66.895
1734297499.484,17.578,37.598,35.645,24.414,3.906
1734297499.488,15.137,36.133,34.668,30.273,-13.672
1734297499.492,39.551,36.621,37.598,44.922,31.738
1734297499.496,29.297,32.715,38.574,37.109,45.410
1734297499.499,29.297,32.715,35.645,23.926,29.785
1734297499.503,28.320,34.668,37.109,16.113,-71.289
1734297499.507,25.391,36.621,39.062,41.992,-25.879
1734297499.511,30.273,37.598,37.109,46.387,116.211
1734297499.515,35.645,35.645,34.180,35.156,68.848
1734297499.519,26.367,33.691,32.715,37.598,19.531
1734297499.523,37.598,33.691,34.180,34.668,55.176
1734297499.527,41.992,36.133,34.668,32.227,89.844
1734297499.531,13.184,35.645,37.598,26.367,51.270
1734297499.535,21.484,33.203,41.016,25.391,15.137
1734297499.539,31.250,34.668,40.527,35.156,-37.598
1734297499.542,24.902,33.203,37.109,39.551,-53.711
1734297499.546,21.973,32.715,31.250,32.227,25.879
1734297499.550,15.137,36.621,33.203,19.531,62.012
1734297499.554,17.578,37.109,37.598,30.273,57.617
1734297499.558,19.531,36.133,42.969,46.875,45.410
1734297499.562,30.273,38.086,45.410,50.293,17.090
1734297499.566,27.832,41.016,40.527,41.504,29.297
1734297499.570,20.020,44.922,42.480,24.902,59.082
1734297499.574,28.809,44.922,45.898,29.785,105.469
1734297499.578,30.273,40.039,45.410,37.109,33.691
1734297499.582,30.273,41.992,41.016,26.367,-49.316
1734297499.585,27.344,41.016,37.109,28.809,-19.531
1734297499.589,32.715,38.574,34.668,33.691,33.691
1734297499.593,28.809,35.645,32.715,30.762,71.289
1734297499.597,13.672,31.738,33.203,20.996,-70.801
1734297499.601,14.648,26.367,31.250,18.555,-71.777
1734297499.605,14.648,24.414,28.809,32.227,95.215
1734297499.609,38.086,25.391,27.832,33.203,72.266
1734297499.613,28.809,27.832,25.391,27.832,-12.207
1734297499.617,10.742,28.809,26.367,24.414,7.812
1734297499.621,13.672,26.855,31.738,27.832,88.867
1734297499.624,14.160,26.367,33.691,37.109,110.352
1734297499.628,23.438,27.344,35.156,33.691,56.641
1734297499.632,34.180,28.320,39.551,29.785,-51.270
1734297499.636,26.855,25.879,43.457,15.625,-116.211
1734297499.640,20.020,22.949,41.992,18.066,39.062
1734297499.644,28.320,26.855,41.504,29.785,115.723
1734297499.648,21.973,29.297,40.527,16.113,57.129
1734297499.652,25.879,26.855,36.133,4.883,14.648
1734297499.656,29.785,28.320,36.133,19.043,31.738
1734297499.660,27.344,31.738,34.180,39.551,67.871
1734297499.664,23.438,30.273,30.273,30.273,63.965
1734297499.667,33.203,27.832,27.832,15.625,23.926
1734297499.671,37.598,27.832,29.297,30.762,-0.977
1734297499.675,19.043,30.273,32.227,45.410,24.414
1734297499.679,14.648,31.738,31.738,36.133,2.441
1734297499.683,15.625,30.273,31.738,20.020,27.832
1734297499.687,18.555,30.762,34.668,19.531,83.496
1734297499.691,37.109,31.738,38.574,30.273,-18.555
1734297499.695,42.480,31.738,41.016,27.344,-56.152
1734297499.699,16.113,29.785,41.504,21.484,38.574
1734297499.703,16.602,31.738,40.527,19.043,74.707
1734297499.707,31.738,31.738,37.109,12.207,44.922
1734297499.710,29.297,30.273,34.180,21.484,22.949
1734297499.714,25.391,28.809,32.227,24.414,52.734
1734297499.718,18.066,27.832,38.574,25.879,44.922
1734297499.722,11.719,26.855,42.969,21.973,60.059
1734297499.726,16.113,25.879,40.527,14.648,-19.531
1734297499.730,22.461,27.344,41.504,32.227,-116.699
1734297499.734,18.066,26.367,43.945,31.738,-2.441
1734297499.738,12.695,26.367,46.875,12.695,90.332
1734297499.742,31.738,29.785,46.387,20.996,117.188
1734297499.746,26.367,33.203,41.016,15.625,75.684
1734297499.749,3.906,36.133,40.527,8.301,11.230
1734297499.753,-5.371,37.109,39.062,18.555,58.594
1734297499.757,4.883,36.621,32.715,32.715,91.309
1734297499.761,4.883,33.691,31.738,26.367,96.191
1734297499.765,4.883,29.297,34.180,-0.488,54.199
1734297499.769,1.465,30.762,35.156,-1.953,-9.766
1734297499.773,0.000,34.180,37.109,24.902,14.648
1734297499.777,6.836,32.715,40.039,32.715,80.078
1734297499.781,-2.930,33.203,39.551,-6.348,81.543
1734297499.785,-8.789,40.527,38.086,-26.367,-73.242
1734297499.789,-10.254,38.574,36.621,-12.207,-71.289
1734297499.792,-20.996,35.156,33.691,1.465,79.590
1734297499.796,-24.414,39.062,34.180,-4.395,78.125
1734297499.800,-10.742,38.574,35.156,-25.879,24.414
1734297499.804,-15.625,36.133,34.668,-21.973,9.277
1734297499.808,-14.160,37.598,34.180,7.324,84.961
1734297499.812,30.762,40.527,33.691,13.184,69.824
1734297499.816,35.645,44.434,30.762,-4.883,-15.625
1734297499.820,1.465,46.387,32.227,-16.602,-63.477
1734297499.824,-2.441,47.363,34.668,-0.488,-73.730
1734297499.828,-9.766,46.387,39.062,17.090,20.508
1734297499.831,-18.555,45.898,45.898,4.883,62.988
1734297499.835,-6.836,45.898,42.969,-1.953,78.125
1734297499.839,13.672,43.945,42.969,11.230,79.102
1734297499.843,16.602,39.551,46.875,19.531,25.391
1734297499.847,29.297,39.062,44.434,19.531,32.715
1734297499.851,46.387,40.527,44.922,23.438,26.367
1734297499.855,28.809,38.574,45.898,21.973,31.250
1734297499.859,51.758,34.668,40.039,22.949,61.035
1734297499.863,44.434,35.156,40.039,34.668,13.184
1734297499.867,6.836,36.133,41.992,26.855,-34.668
1734297499.871,25.391,33.691,38.086,27.344,26.855
1734297499.874,38.574,35.645,39.551,50.293,101.562
1734297499.878,34.180,42.480,40.527,41.992,-51.270
1734297499.882,37.598,45.410,37.598,22.461,-95.703
1734297499.886,32.715,45.898,37.109,31.250,55.664
1734297499.890,27.344,41.992,36.621,52.734,100.586
1734297499.894,40.527,41.016,37.598,54.199,53.223
1734297499.898,41.016,41.992,39.062,28.809,-20.020
1734297499.902,49.316,39.062,39.551,25.879,18.555
1734297499.906,68.848,39.551,38.086,44.922,83.984
1734297499.910,41.992,41.016,36.621,55.664,57.129
1734297499.914,18.555,39.062,37.598,49.316,-39.062
1734297499.917,26.855,36.133,35.645,27.344,-111.816
1734297499.921,56.152,35.645,35.156,30.762,4.883
1734297499.925,34.180,38.086,34.180,54.199,90.820
1734297499.929,7.324,37.598,31.738,49.316,67.383
1734297499.933,24.902,37.598,32.227,32.715,39.062
1734297499.937,46.387,35.156,31.250,28.320,46.875
1734297499.941,47.852,35.156,25.879,44.922,90.332
1734297499.945,29.785,37.598,22.949,51.270,79.102
1734297499.949,32.715,38.086,23.926,36.621,50.781
1734297499.953,41.016,38.086,26.367,36.621,22.461
1734297499.956,60.547,41.504,26.855,38.574,15.625
1734297499.960,80.566,43.945,25.879,45.410,0.000
1734297499.964,73.730,40.039,29.297,49.805,-4.395
1734297499.968,46.875,38.086,35.156,44.434,37.598
1734297499.972,41.016,39.062,34.668,47.852,-33.691
1734297499.976,51.758,37.109,32.715,54.688,-21.973
1734297499.980,53.711,36.621,36.621,60.547,54.688
1734297499.984,30.273,33.691,36.133,47.852,24.902
1734297499.988,34.668,38.574,32.715,43.457,24.414
1734297499.992,57.129,45.898,34.180,60.547,32.227
1734297499.996,40.039,42.480,31.738,49.316,60.059
1734297499.999,54.199,38.086,29.297,33.691,45.410
1734297500.003,46.875,34.668,27.344,41.504,14.160
1734297500.007,19.043,34.180,26.367,56.152,-39.062
1734297500.011,30.762,31.738,27.832,44.922,-73.242
1734297500.015,30.762,26.855,29.297,22.461,-17.578
1734297500.019,30.762,27.832,29.785,33.691,34.668
1734297500.023,48.828,30.762,31.250,48.828,75.684
1734297500.027,42.969,31.250,32.227,50.293,39.551
1734297500.031,19.043,31.738,29.297,41.504,37.109
1734297500.035,19.531,33.203,31.738,37.598,77.148
1734297500.038,30.273,34.668,35.156,40.039,89.844
1734297500.042,33.691,34.180,31.250,48.340,85.449
1734297500.046,20.508,36.133,29.785,41.504,40.527
1734297500.050,18.555,35.645,29.297,22.949,-28.809
1734297500.054,34.180,34.180,25.879,30.273,-34.668
1734297500.058,50.293,35.645,29.297,46.387,37.109
1734297500.062,28.320,33.203,35.156,62.500,73.242
1734297500.066,9.766,30.273,36.621,50.781,-87.402
1734297500.070,32.227,29.785,35.156,21.484,-75.684
1734297500.074,53.711,31.738,34.180,28.320,57.617
1734297500.078,56.152,33.691,36.621,38.574,50.293
1734297500.081,32.715,34.668,36.621,33.691,43.945
1734297500.085,24.414,35.156,32.715,33.203,28.320
1734297500.089,35.156,34.180,30.273,36.133,67.871
1734297500.093,48.340,36.133,31.738,45.898,71.777
1734297500.097,30.762,34.668,36.133,58.594,30.762
1734297500.101,18.066,32.715,37.598,46.387,-58.105
1734297500.105,21.973,33.203,35.645,36.133,-94.238
1734297500.109,30.273,31.738,30.273,39.551,24.414
1734297500.113,36.133,30.762,31.738,36.621,52.246
1734297500.117,27.344,30.762,35.645,35.645,36.133
1734297500.121,45.410,32.715,36.133,34.668,34.668
1734297500.124,44.922,34.180,33.691,45.410,65.430
1734297500.128,28.809,31.250,32.227,46.875,91.309
1734297500.132,31.738,26.367,33.691,21.484,21.484
1734297500.136,33.203,25.391,34.180,24.414,26.367
1734297500.140,30.273,26.367,37.109,41.504,56.152
1734297500.144,39.062,28.320,36.621,49.805,10.742
1734297500.148,28.809,28.809,32.227,33.691,-4.395
1734297500.152,11.719,26.367,33.691,16.113,38.086
1734297500.156,26.855,22.949,36.133,34.180,71.777
1734297500.160,43.945,27.344,35.156,39.551,-43.457
1734297500.163,20.020,27.832,31.738,27.344,-64.453
1734297500.167,17.578,22.949,30.762,17.578,41.016
1734297500.171,31.250,22.461,31.738,22.949,83.984
1734297500.175,20.996,23.438,32.715,43.457,69.336
1734297500.179,31.250,25.391,30.762,41.016,37.109
1734297500.183,25.879,29.297,33.691,27.344,73.730
1734297500.187,17.090,32.227,38.086,18.555,89.844
1734297500.191,34.180,32.227,35.645,21.484,55.176
1734297500.195,31.738,34.180,38.574,42.969,-42.969
1734297500.199,11.719,35.156,39.551,27.832,-97.656
1734297500.203,22.461,32.715,39.551,1.953,17.090
1734297500.206,39.551,33.691,41.504,18.066,100.586
1734297500.210,38.086,38.574,35.156,32.715,96.680
1734297500.214,27.832,39.062,33.203,23.926,45.410
1734297500.218,29.785,35.645,38.574,14.648,44.434
1734297500.222,24.902,33.203,38.574,20.020,104.004
1734297500.226,24.414,33.691,38.086,24.902,85.449
1734297500.230,31.738,35.645,38.086,20.996,58.594
1734297500.234,9.766,34.668,34.668,13.672,18.555
1734297500.238,7.324,28.809,35.156,20.508,-26.855
1734297500.242,28.320,26.367,39.551,32.227,-10.254
1734297500.246,25.391,28.809,38.086,19.043,23.438
1734297500.249,11.230,30.762,32.715,13.184,14.160
1734297500.253,24.902,32.227,29.785,19.531,-83.984
1734297500.257,40.039,31.738,29.785,16.113,-46.875
1734297500.261,37.109,31.738,32.715,24.414,83.984
1734297500.265,28.809,33.203,32.227,24.414,72.754
1734297500.269,22.949,33.691,31.738,15.137,14.160
1734297500.273,26.367,35.156,29.297,37.109,37.109
1734297500.277,29.785,34.668,26.367,48.828,101.562
1734297500.281,34.668,34.180,33.691,35.645,61.523
1734297500.285,39.062,35.156,37.598,24.414,-15.625
1734297500.288,26.367,37.109,35.645,31.738,-56.641
1734297500.292,18.066,37.598,34.668,49.805,-70.801
1734297500.296,35.156,33.691,34.668,42.480,2.930
1734297500.300,41.992,30.273,33.203,30.762,67.871
1734297500.304,23.438,30.762,32.227,42.969,81.055
1734297500.308,25.879,34.668,37.109,53.711,52.246
1734297500.312,30.273,34.668,37.598,39.551,40.527
1734297500.316,24.414,32.715,34.180,31.738,29.297
1734297500.320,21.973,33.203,34.668,41.504,26.367
1734297500.324,36.133,33.203,34.668,34.668,66.406
1734297500.328,26.855,32.227,36.621,32.715,34.668
1734297500.331,19.531,32.227,35.156,35.645,-0.977
1734297500.335,21.973,34.180,26.855,15.137,-5.371
1734297500.339,19.043,33.691,21.973,21.973,8.301
1734297500.343,23.926,33.691,20.508,40.039,83.008
1734297500.347,30.762,37.109,26.855,31.250,-35.645
1734297500.351,28.809,36.621,32.715,17.090,-66.895
1734297500.355,27.344,35.645,28.320,22.461,64.941
1734297500.359,19.043,34.180,24.902,36.621,111.328
1734297500.363,5.859,34.668,23.926,32.715,84.473
1734297500.367,16.602,38.574,27.344,17.090,17.578
1734297500.371,34.668,33.691,31.250,15.137,55.176
1734297500.374,40.039,27.832,33.691,23.438,96.680
1734297500.378,9.766,29.297,35.645,22.461,67.871
1734297500.382,-3.418,31.250,35.156,10.742,-44.434
1734297500.386,16.602,32.715,33.203,3.906,-113.281
1734297500.390,16.602,31.250,32.227,17.090,6.348
1734297500.394,11.719,28.809,35.156,33.691,92.773
1734297500.398,16.602,25.879,32.715,28.320,80.078
1734297500.402,26.855,20.508,32.227,15.625,19.043
1734297500.406,9.277,17.090,32.227,15.625,27.832
1734297500.410,11.719,16.602,28.809,18.066,88.867
1734297500.413,31.250,19.531,29.297,16.602,74.219
1734297500.417,20.020,20.020,31.738,4.883,61.523
1734297500.421,22.461,20.020,31.738,12.207,34.180
1734297500.425,21.973,22.949,30.762,30.273,0.977
1734297500.429,20.996,21.973,28.320,30.762,-16.113
1734297500.433,15.137,22.949,26.855,32.715,32.715
1734297500.437,17.090,25.391,29.297,31.250,83.008
1734297500.441,42.480,26.855,34.668,29.297,-39.551
1734297500.445,50.293,26.855,36.133,53.711,-43.945
1734297500.449,33.203,28.809,32.715,48.828,62.012
1734297500.453,28.809,33.203,32.715,25.879,71.289
1734297500.456,36.621,32.227,30.762,33.203,50.781
1734297500.460,32.227,27.832,28.809,39.551,26.855
1734297500.464,21.973,22.949,33.203,38.574,58.105
1734297500.468,29.785,25.879,34.180,34.668,58.594
1734297500.472,35.156,28.320,31.250,37.598,69.336
1734297500.476,26.367,28.809,32.715,42.480,15.137
1734297500.480,18.555,32.715,35.645,30.762,-97.656
1734297500.484,21.484,30.762,33.691,21.973,-35.645
1734297500.488,28.320,23.926,34.180,33.203,67.383
1734297500.492,24.902,21.484,32.715,43.457,80.566
1734297500.495,13.184,21.484,32.227,32.715,62.012
1734297500.499,24.902,22.949,32.227,22.461,32.227
1734297500.503,39.062,26.367,30.273,20.508,33.691
1734297500.507,21.973,26.367,31.250,29.297,76.172
1734297500.511,13.184,26.855,32.227,47.363,87.402
1734297500.515,39.551,32.715,33.691,37.598,39.551
1734297500.519,34.180,35.156,37.598,19.531,8.301
1734297500.523,16.602,33.691,37.109,28.320,-4.395
1734297500.527,33.691,36.133,35.156,34.180,40.527
1734297500.531,30.273,36.133,38.086,35.645,58.105
1734297500.535,21.973,33.691,42.969,28.320,-96.680
1734297500.538,29.785,30.762,37.598,24.414,-110.352
1734297500.542,26.855,31.250,32.227,45.898,32.227
1734297500.546,22.461,32.715,35.645,40.039,53.223
1734297500.550,40.527,30.762,33.203,26.367,20.996
1734297500.554,47.363,32.227,31.250,28.809,20.020
1734297500.558,29.785,34.668,31.250,36.133,92.285
1734297500.562,2.930,37.598,31.250,40.527,72.266
1734297500.566,14.160,37.598,31.738,32.227,19.531
1734297500.570,51.270,35.156,36.133,33.691,-49.805
1734297500.574,30.273,32.227,39.062,38.086,-89.355
1734297500.578,15.137,28.320,36.133,39.551,6.836
1734297500.581,21.484,25.879,32.715,36.621,63.477
1734297500.585,12.695,26.855,30.762,24.414,72.266
1734297500.589,15.625,28.809,31.738,19.531,75.684
1734297500.593,10.742,30.762,27.832,20.508,66.406
1734297500.597,14.648,30.273,25.391,22.949,17.578
1734297500.601,14.648,26.367,23.926,19.043,15.625
1734297500.605,7.324,26.367,22.461,18.555,78.613
1734297500.609,20.020,30.273,26.855,32.715,73.730
1734297500.613,15.625,33.203,30.273,37.109,4.395
1734297500.617,12.207,31.250,31.250,23.438,-67.871
1734297500.620,24.414,31.738,33.691,7.324,-17.090
1734297500.624,37.598,32.715,32.715,25.391,87.891
1734297500.628,47.852,37.109,32.715,45.410,-45.898
1734297500.632,49.805,38.574,31.250,21.973,-91.309
1734297500.636,39.062,36.621,32.715,18.066,62.988
1734297500.640,52.246,36.133,34.668,32.227,98.633
1734297500.644,43.945,35.645,33.203,42.969,62.988
1734297500.648,8.789,35.156,31.738,41.992,29.297
1734297500.652,20.508,33.691,30.762,29.297,57.129
1734297500.656,43.457,34.180,32.715,33.691,62.012
1734297500.660,36.133,30.762,35.156,38.574,46.387
1734297500.663,14.648,28.320,35.645,31.738,-9.766
1734297500.667,13.184,28.320,35.645,21.973,-83.496
1734297500.671,34.668,29.297,33.691,16.602,3.906
1734297500.675,45.410,30.273,34.668,33.203,72.754
1734297500.679,54.199,30.762,39.551,44.922,65.918
1734297500.683,38.574,31.250,40.527,32.715,8.789
1734297500.687,23.926,32.227,39.551,34.180,15.137
1734297500.691,34.668,33.203,43.457,32.715,65.918
1734297500.695,20.508,30.762,46.875,32.715,49.316
1734297500.699,23.926,27.344,45.898,36.621,56.152
1734297500.703,27.344,30.762,43.457,27.344,31.738
1734297500.706,21.484,30.762,41.992,20.996,14.648
1734297500.710,29.297,29.297,42.480,23.926,-2.930
1734297500.714,25.879,27.832,42.480,20.996,-33.203
1734297500.718,21.484,24.902,40.527,23.438,11.230
1734297500.722,29.785,24.902,40.527,30.273,-66.895
1734297500.726,40.039,20.996,38.574,33.691,-34.668
1734297500.730,30.273,20.508,36.133,26.855,85.938
1734297500.734,14.648,20.996,34.668,16.113,57.617
1734297500.738,24.414,17.090,36.133,20.020,43.945
1734297500.742,35.156,17.090,38.574,30.762,39.062
1734297500.745,32.715,19.043,36.133,32.227,62.988
1734297500.749,34.180,24.414,35.156,23.926,37.598
1734297500.753,38.086,29.785,36.133,24.414,17.090
1734297500.757,23.926,29.297,36.133,39.551,-20.020
1734297500.761,12.695,28.320,39.551,43.945,-64.453
1734297500.765,27.344,28.809,41.016,31.738,0.000
1734297500.769,29.785,25.879,42.480,21.484,37.598
1734297500.773,24.902,24.902,41.016,29.297,74.219
1734297500.777,30.273,28.809,36.621,41.992,61.035
1734297500.781,20.508,31.738,36.133,35.156,28.320
1734297500.785,29.297,30.762,35.156,27.344,78.613
1734297500.788,50.293,31.738,34.180,28.320,79.102
1734297500.792,34.668,34.180,41.504,41.016,74.219
1734297500.796,2.441,33.203,42.969,37.109,53.223
1734297500.800,19.043,33.203,37.598,32.227,-9.277
1734297500.804,37.598,36.133,37.109,26.367,-15.625
1734297500.808,17.578,37.598,36.621,17.578,38.574
1734297500.812,7.324,38.574,36.133,33.203,80.078
1734297500.816,6.836,41.016,35.645,25.391,-64.453
1734297500.820,14.160,42.969,35.156,6.836,-78.613
1734297500.824,24.902,42.480,35.156,22.461,91.309
1734297500.828,48.340,40.039,33.203,32.715,68.359
1734297500.831,35.645,36.621,33.691,21.973,12.695
1734297500.835,20.020,34.668,35.156,15.625,16.602
1734297500.839,36.133,35.645,31.738,23.926,68.848
1734297500.843,18.066,34.668,32.227,21.484,77.637
1734297500.847,6.836,30.762,32.715,12.207,59.570
1734297500.851,26.367,31.738,34.668,20.508,-14.160
1734297500.855,38.086,32.715,38.574,21.973,-89.355
1734297500.859,34.180,29.785,35.645,23.926,32.715
1734297500.863,26.367,31.738,34.668,28.320,112.793
1734297500.867,8.301,29.297,33.203,17.578,76.172
1734297500.870,2.441,25.879,33.203,18.555,52.246
1734297500.874,12.695,27.832,37.598,43.457,58.594
1734297500.878,19.531,31.738,39.551,61.035,78.125
1734297500.882,16.113,31.738,33.691,35.645,53.711
1734297500.886,20.996,30.762,28.809,8.301,22.949
1734297500.890,37.109,34.180,26.367,24.414,20.020
1734297500.894,7.812,33.203,25.879,29.297,14.160
1734297500.898,-11.230,28.320,29.785,6.836,-19.043
1734297500.902,4.395,27.344,31.738,-4.883,-4.883
1734297500.906,9.277,29.297,33.203,0.488,82.520
1734297500.910,24.902,32.715,34.668,21.973,-26.367
1734297500.913,28.320,34.668,31.738,16.113,-84.961
1734297500.917,0.000,29.785,33.691,8.301,40.527
1734297500.921,5.371,29.297,37.598,12.207,79.590
1734297500.925,25.391,30.762,34.180,30.273,55.664
1734297500.929,18.066,29.297,28.809,39.551,26.855
1734297500.933,12.695,29.785,26.855,16.602,58.594
1734297500.937,20.996,29.785,28.320,19.043,80.078
1734297500.941,26.367,32.227,26.367,27.832,61.523
1734297500.945,22.461,35.156,26.855,22.461,-24.902
1734297500.949,16.113,31.738,33.203,23.926,-120.605
1734297500.952,32.715,29.785,36.621,21.484,-37.109
1734297500.956,55.176,32.227,38.086,28.809,86.426
1734297500.960,23.438,32.715,35.645,35.645,122.559
1734297500.964,4.395,35.156,32.715,31.738,66.406
1734297500.968,22.461,39.062,35.645,29.785,26.855
1734297500.972,34.668,40.527,35.645,35.156,98.633
1734297500.976,44.434,39.062,35.156,51.758,124.512
1734297500.980,51.758,36.621,38.086,47.852,71.289
1734297500.984,45.898,38.086,35.156,23.438,3.906
1734297500.988,41.504,41.016,33.691,35.645,-5.859
1734297500.992,36.621,37.109,33.691,54.688,-9.277
1734297500.995,33.203,33.691,26.367,43.945,19.531
1734297500.999,35.645,34.668,25.879,29.785,36.133
1734297501.003,33.203,37.109,33.691,26.855,-87.402
1734297501.007,30.762,36.133,36.133,36.133,-46.387
1734297501.011,32.227,30.273,37.109,50.781,66.895
1734297501.015,44.434,32.715,38.574,40.039,58.105
1734297501.019,57.617,37.598,40.039,19.043,35.156
1734297501.023,42.969,34.668,40.527,34.668,21.973
1734297501.027,32.227,35.645,36.621,45.410,93.750
1734297501.031,34.668,35.645,34.668,33.203,77.637
1734297501.035,34.180,28.809,32.715,24.414,16.602
1734297501.038,47.852,27.832,35.645,27.344,-38.086
1734297501.042,44.434,26.367,37.598,38.574,-84.473
1734297501.046,26.367,25.391,36.133,43.945,10.742
1734297501.050,23.438,28.320,34.668,41.016,47.852
1734297501.054,36.621,27.344,32.227,43.457,63.477
1734297501.058,25.879,29.785,34.668,38.086,49.805
1734297501.062,22.949,30.273,37.109,32.715,6.348
1734297501.066,25.391,30.273,34.668,32.227,35.645
1734297501.070,34.180,32.227,31.738,25.879,71.289
1734297501.074,36.621,28.809,30.273,33.691,93.262
1734297501.077,21.973,28.809,28.809,34.668,35.156
1734297501.081,27.832,33.691,27.832,29.785,-29.297
1734297501.085,23.438,33.203,24.902,27.344,-40.527
1734297501.089,45.410,32.227,21.973,38.086,25.879
1734297501.093,76.172,35.645,23.926,55.176,92.773
1734297501.097,32.227,35.156,26.367,35.156,-57.617
1734297501.101,6.836,34.668,22.461,18.555,-83.008
1734297501.105,34.180,32.715,22.461,35.645,69.336
1734297501.109,53.711,31.250,24.414,52.734,117.676
1734297501.113,52.734,33.691,22.461,37.109,70.312
1734297501.117,31.250,32.227,25.879,16.602,-5.859
1734297501.120,31.738,28.809,28.809,21.973,33.203
1734297501.124,29.297,26.855,26.367,38.574,77.148
1734297501.128,14.160,23.926,25.391,42.969,54.199
1734297501.132,29.785,27.832,26.367,23.926,-34.180
1734297501.136,30.273,30.762,28.809,14.648,-111.816
1734297501.140,30.273,26.855,28.809,32.715,17.578
1734297501.144,36.621,26.855,29.297,31.738,110.840
1734297501.148,8.301,27.832,28.809,28.809,82.520
1734297501.152,25.879,29.297,29.785,22.949,35.156
1734297501.156,44.922,31.738,32.715,24.902,35.645
1734297501.159,13.184,27.344,32.227,44.434,86.426
1734297501.163,5.371,23.926,30.273,39.551,52.734
1734297501.167,26.855,23.438,32.227,28.320,43.945
1734297501.171,28.320,22.949,34.668,29.297,41.016
1734297501.175,31.738,26.855,32.715,24.414,25.391
1734297501.179,28.320,29.785,32.227,27.832,8.789
1734297501.183,41.016,30.762,34.668,21.484,-11.719
1734297501.187,43.457,33.203,33.203,26.855,63.965
1734297501.191,13.672,32.715,33.691,35.156,-3.418
1734297501.195,4.883,28.320,32.715,27.832,-59.082
1734297501.199,10.254,26.855,33.203,24.902,35.156
1734297501.202,20.020,28.320,31.738,17.578,71.289
1734297501.206,30.273,27.344,25.879,27.344,83.008
1734297501.210,56.641,24.902,23.926,42.480,67.383
1734297501.214,44.434,26.367,24.414,41.016,57.617
1734297501.218,13.672,27.344,28.320,27.344,37.109
1734297501.222,20.020,26.367,27.344,21.973,34.668
1734297501.226,19.043,23.438,27.832,42.480,-0.488
1734297501.230,18.066,24.902,29.297,36.621,-75.195
1734297501.234,30.762,30.273,27.344,23.438,-28.809
1734297501.238,34.668,33.691,28.809,40.039,61.523
1734297501.242,40.527,32.715,33.691,42.480,115.723
1734297501.245,37.109,31.250,33.203,40.527,89.355
1734297501.249,15.625,28.320,30.762,33.203,24.902
1734297501.253,19.043,23.438,30.762,20.508,63.477
1734297501.257,23.926,23.926,32.227,21.973,112.305
1734297501.261,24.414,26.855,32.227,34.668,104.980
1734297501.265,27.344,24.414,32.715,32.227,68.359
1734297501.269,15.625,23.438,35.645,17.578,6.348
1734297501.273,13.184,27.832,36.621,24.902,-19.043
1734297501.277,21.973,30.762,38.086,40.527,45.898
1734297501.281,23.926,32.227,31.738,40.039,71.777
1734297501.284,18.555,33.203,25.879,22.949,-64.941
1734297501.288,25.879,34.668,27.832,14.648,-67.383
1734297501.292,34.180,34.668,28.809,35.156,34.180
1734297501.296,25.391,33.203,29.785,41.016,51.758
1734297501.300,13.184,33.691,31.738,31.250,38.086
1734297501.304,9.766,32.715,28.809,26.855,15.137
1734297501.308,26.367,31.250,27.344,28.809,84.961
1734297501.312,35.156,32.227,34.668,35.156,76.172
1734297501.316,19.043,33.203,34.668,28.809,12.207
1734297501.320,22.949,33.691,29.785,21.973,-52.734
1734297501.324,42.969,30.762,31.250,14.160,-93.750
1734297501.327,25.879,28.320,33.691,11.230,-7.324
1734297501.331,15.625,28.809,34.668,11.719,46.875
1734297501.335,29.297,29.785,32.227,11.719,55.664
1734297501.339,25.391,32.715,28.809,25.879,63.477
1734297501.343,33.691,32.227,29.297,40.527,52.246
1734297501.347,28.809,32.227,32.227,34.668,19.043
1734297501.351,18.555,34.180,34.668,30.273,10.742
1734297501.355,28.320,30.273,34.180,36.133,94.238
1734297501.359,16.113,27.832,36.133,36.621,78.125
1734297501.363,17.578,30.762,38.086,38.086,13.672
1734297501.367,21.973,33.691,39.551,35.156,2.930
1734297501.370,19.043,32.227,38.086,27.344,42.969
1734297501.374,28.809,32.715,36.133,35.645,102.539
1734297501.378,23.926,33.691,39.062,33.203,-23.438
1734297501.382,14.160,32.227,40.527,30.762,-60.059
1734297501.386,32.715,32.715,35.645,22.949,33.691
1734297501.390,32.227,30.273,32.715,20.020,67.871
1734297501.394,14.648,24.902,36.133,30.762,62.500
1734297501.398,13.672,20.508,37.109,24.902,4.395
1734297501.402,17.578,20.996,33.203,22.949,41.016
1734297501.406,14.160,23.438,30.273,22.461,38.574
1734297501.409,17.578,25.879,30.273,35.156,12.207
1734297501.413,22.461,26.367,29.785,40.039,-27.832
1734297501.417,52.246,27.344,30.762,22.461,-91.309
1734297501.421,48.828,29.297,29.297,25.391,28.320
1734297501.425,5.859,28.320,29.297,33.691,102.051
1734297501.429,17.578,29.785,26.855,39.062,87.402
1734297501.433,34.668,32.715,21.484,36.133,50.293
1734297501.437,24.902,32.715,22.461,14.160,25.391
1734297501.441,10.742,30.762,23.438,30.273,65.430
1734297501.445,27.832,33.691,20.996,48.340,68.848
1734297501.449,49.805,39.551,25.391,34.180,31.250
1734297501.452,51.758,37.598,28.320,30.762,20.996
1734297501.456,42.480,35.645,26.367,33.691,4.883
1734297501.460,28.809,34.668,26.855,35.156,8.789
1734297501.464,28.320,35.645,30.273,28.320,24.414
1734297501.468,32.227,35.645,31.738,22.949,23.926
1734297501.472,38.574,33.203,32.227,33.691,-57.129
1734297501.476,33.203,32.715,29.297,41.504,-43.457
1734297501.480,20.996,31.250,26.855,33.203,69.336
1734297501.484,13.184,31.738,32.715,16.602,54.688
1734297501.488,21.973,30.273,35.645,16.602,22.949
1734297501.492,38.086,30.273,32.227,36.133,35.645
1734297501.495,41.504,32.227,31.250,47.363,81.543
1734297501.499,32.227,30.762,33.203,38.086,65.918
1734297501.503,32.715,30.762,32.227,26.855,46.875
1734297501.507,46.387,33.203,33.203,29.785,8.789
1734297501.511,21.484,30.762,33.691,31.250,-69.336
1734297501.515,5.371,30.762,26.855,29.785,-3.906
1734297501.519,24.414,33.691,22.949,17.578,66.406
1734297501.523,31.738,31.250,23.926,16.602,59.082
1734297501.527,22.949,26.855,27.344,32.227,60.059
1734297501.531,31.250,25.879,28.809,24.902,66.406
1734297501.534,47.852,26.367,29.297,15.137,74.219
1734297501.538,33.691,22.949,33.203,12.695,80.078
1734297501.542,10.742,20.996,31.738,16.602,88.867
1734297501.546,11.719,24.414,25.879,21.484,22.949
1734297501.550,15.625,29.297,26.855,14.648,-41.504
1734297501.554,18.555,34.180,31.250,11.230,-16.113
1734297501.558,19.531,35.645,29.297,19.531,50.781
1734297501.562,18.066,36.133,32.227,26.367,94.727
1734297501.566,10.742,37.109,38.574,10.742,-81.543
1734297501.570,15.625,39.062,35.156,-2.930,-100.098
1734297501.574,24.414,30.762,29.785,18.066,76.660
1734297501.577,29.785,22.461,32.715,34.180,84.473
1734297501.581,31.738,28.320,36.621,26.855,18.555
1734297501.585,40.527,32.715,35.645,15.137,9.766
1734297501.589,23.926,35.156,31.738,16.113,81.543
1734297501.593,24.902,36.621,33.691,36.133,77.148
1734297501.597,28.809,34.668,34.180,38.086,38.574
1734297501.601,26.855,32.227,32.227,17.090,-34.180
1734297501.605,36.621,36.133,34.180,20.020,-68.359
1734297501.609,15.625,30.762,33.203,38.086,55.176
1734297501.613,18.555,14.160,32.715,36.621,107.910
1734297501.616,40.527,22.461,38.086,30.273,93.262
1734297501.620,38.574,39.062,41.992,21.484,55.176
1734297501.624,24.414,40.527,40.527,24.902,54.688
1734297501.628,18.555,39.551,41.992,36.133,86.426
1734297501.632,25.391,38.086,37.109,35.645,55.664
1734297501.636,23.438,36.133,33.691,25.879,51.758
1734297501.640,20.020,35.645,38.086,25.879,32.715
1734297501.644,23.926,36.133,38.574,35.645,-4.883
1734297501.648,16.602,34.180,37.109,30.273,-45.410
1734297501.652,13.672,31.250,37.109,20.996,-4.395
1734297501.656,35.156,31.250,34.180,14.160,96.191
1734297501.659,4.395,31.738,31.250,11.719,-41.016
1734297501.663,-21.973,27.832,28.320,7.324,-72.266
1734297501.667,-0.977,32.715,25.879,-5.859,20.508
1734297501.671,14.648,43.457,31.738,-11.719,31.738
1734297501.675,4.883,53.223,30.273,-18.555,56.152
1734297501.679,-34.180,56.152,27.344,-28.320,40.527
1734297501.683,-52.734,54.199,26.367,-46.387,65.430
1734297501.687,-51.758,52.246,26.367,-67.871,52.734
1734297501.691,-80.078,50.293,28.320,-81.543,44.922
1734297501.695,-104.492,53.711,29.297,-100.098,-32.227
1734297501.699,-126.465,55.664,29.785,-136.230,-123.047
1734297501.702,-165.039,50.781,27.344,-176.758,-49.316
1734297501.706,-157.227,50.293,28.809,-185.547,60.059
1734297501.710,-154.297,49.805,28.320,-173.828,101.562
1734297501.714,-161.133,49.316,21.484,-187.012,35.156
1734297501.718,-166.504,56.152,20.996,-201.660,1.953
1734297501.722,-179.199,54.688,19.531,-198.242,65.430
1734297501.726,-176.758,48.340,18.066,-186.035,96.680
1734297501.730,-169.922,44.922,13.184,-183.105,73.242
1734297501.734,-152.832,49.316,12.695,-212.402,5.371
1734297501.738,-159.180,51.270,19.043,-204.102,-16.113
1734297501.741,-164.551,57.617,11.230,-170.410,11.230
1734297501.745,-159.668,57.129,7.324,-169.434,52.246
1734297501.749,-171.387,54.199,7.812,-181.152,78.125
1734297501.753,-160.645,65.918,5.859,-185.547,-65.430
1734297501.757,-142.090,72.266,1.465,-178.711,-59.082
1734297501.761,-148.438,64.941,2.930,-172.852,82.520
1734297501.765,-167.969,55.176,8.301,-176.270,72.754
1734297501.769,-152.344,58.594,13.672,-174.805,49.316
1734297501.773,-121.094,54.688,19.043,-154.785,57.129
1734297501.777,-119.141,45.898,17.090,-137.207,96.191
1734297501.781,-129.883,45.410,16.113,-135.254,62.988
1734297501.784,-103.027,56.641,16.113,-140.137,10.742
1734297501.788,-95.703,60.059,16.113,-129.883,-27.344
1734297501.792,-108.887,51.270,14.648,-119.629,-87.402
1734297501.796,-78.613,52.734,11.230,-118.164,-0.488
1734297501.800,-76.660,58.105,4.883,-121.582,80.078
1734297501.804,-101.074,52.246,5.859,-118.164,60.547
1734297501.808,-93.262,48.828,13.184,-108.398,62.500
1734297501.812,-92.285,44.922,9.766,-106.934,21.973
1734297501.816,-107.910,38.574,5.859,-103.027,7.324
1734297501.820,-77.148,40.039,12.207,-105.469,43.945
1734297501.824,-71.289,42.480,15.137,-100.586,69.824
1734297501.827,-88.379,43.945,20.020,-81.055,57.617
1734297501.831,-73.730,45.898,27.344,-78.125,-10.254
1734297501.835,-63.477,41.992,30.273,-78.125,-25.879
1734297501.839,-49.805,40.039,30.762,-70.801,23.438
1734297501.843,-41.992,42.480,27.344,-60.059,88.867
1734297501.847,-54.688,41.016,24.414,-65.430,-47.852
1734297501.851,-50.293,34.668,21.973,-72.754,-88.867
1734297501.855,-41.992,32.715,22.461,-52.734,74.219
1734297501.859,-39.062,39.551,21.484,-43.945,110.352
1734297501.863,-37.598,42.969,20.996,-38.086,59.570
1734297501.866,-39.551,34.668,23.926,-40.527,-0.977
1734297501.870,-39.062,31.250,22.949,-48.828,23.438
1734297501.874,-45.898,31.250,20.020,-45.898,37.109
1734297501.878,-35.156,29.297,17.578,-34.180,61.523
1734297501.882,-26.367,28.320,22.461,-37.109,-15.137
1734297501.886,-18.066,29.297,28.809,-44.434,-111.328
1734297501.890,-19.531,27.832,25.879,-25.879,0.977
1734297501.894,-14.160,25.391,24.902,-0.977,101.562
1734297501.898,-6.836,21.484,25.879,2.441,93.750
1734297501.902,1.953,18.555,26.367,4.395,39.062
1734297501.906,9.277,17.090,28.809,1.953,24.902
1734297501.909,20.020,18.066,33.203,24.902,85.938
1734297501.913,23.926,17.090,35.156,42.480,82.031
1734297501.917,23.926,15.137,40.527,43.457,53.711
1734297501.921,41.016,14.648,45.898,58.594,10.254
1734297501.925,57.129,9.766,45.410,81.543,0.000
1734297501.929,65.918,9.277,42.969,100.098,10.254
1734297501.933,77.637,17.578,37.598,89.355,-5.371
1734297501.937,87.402,14.648,36.621,94.238,55.176
1734297501.941,91.309,5.859,40.527,113.281,-14.160
1734297501.945,98.633,5.859,39.551,124.023,-41.016
1734297501.948,113.281,11.719,35.156,124.512,55.664
1734297501.952,128.906,8.789,34.180,114.746,61.035
1734297501.956,133.789,1.953,34.668,137.695,56.641
1734297501.960,108.398,3.906,33.203,156.738,58.105
1734297501.964,101.562,8.789,34.668,151.367,77.637
1734297501.968,131.348,12.207,39.551,144.531,47.363
1734297501.972,132.324,12.695,36.133,140.137,29.785
1734297501.976,141.602,10.254,36.133,162.598,2.441
1734297501.980,140.625,11.719,35.156,185.547,-75.195
1734297501.984,143.066,14.160,32.227,180.664,-24.902
1734297501.988,164.551,15.625,35.156,172.852,19.531
1734297501.991,166.016,16.113,35.645,186.035,68.359
1734297501.995,168.457,13.184,32.227,215.332,61.035
1734297501.999,167.969,12.207,29.785,220.703,39.062
1734297502.003,174.805,16.113,27.832,185.547,75.684
1734297502.007,177.734,18.555,28.809,187.988,86.914
1734297502.011,165.527,18.066,30.273,211.426,110.352
1734297502.015,148.926,18.555,29.785,197.754,24.414
1734297502.019,189.453,17.090,31.250,176.270,-17.090
1734297502.023,199.707,17.578,30.762,171.875,10.254
1734297502.027,159.668,19.043,33.203,192.383,28.809
1734297502.031,155.273,21.973,34.668,201.660,69.336
1734297502.034,166.016,26.367,34.180,191.895,-68.359
1734297502.038,166.504,23.926,32.715,166.504,-84.961
1734297502.042,149.902,21.973,34.668,166.016,32.715
1734297502.046,153.320,24.902,37.598,182.617,7.324
1734297502.050,155.273,25.879,36.621,174.316,-0.488
1734297502.054,133.301,24.902,37.598,148.438,13.672
1734297502.058,132.324,23.438,40.039,146.973,75.195
1734297502.062,123.047,22.461,41.992,157.715,57.617
1734297502.066,107.910,24.414,43.457,145.996,11.719
1734297502.070,114.258,25.391,43.457,133.789,-34.668
1734297502.073,121.094,23.926,41.016,127.441,-79.102
1734297502.077,118.652,21.484,38.086,134.766,34.668
1734297502.081,115.723,21.484,35.645,129.883,96.191
1734297502.085,113.770,22.949,33.203,121.582,67.871
1734297502.089,83.496,21.484,38.086,123.535,43.457
1734297502.093,83.984,22.461,41.504,128.906,43.457
1734297502.097,86.914,26.367,41.016,117.188,87.891
1734297502.101,85.938,24.902,45.410,99.121,16.113
1734297502.105,103.027,25.391,46.875,115.723,20.996
1734297502.109,96.680,27.344,45.410,134.766,68.848
1734297502.113,88.867,28.809,44.434,121.094,-4.883
1734297502.116,89.355,32.227,45.410,105.957,-53.223
1734297502.120,85.938,32.227,47.363,97.168,6.348
1734297502.124,106.934,30.762,44.922,102.539,100.586
1734297502.128,129.395,30.762,42.480,110.352,-27.344
1734297502.132,86.426,33.691,41.016,96.680,-76.172
1734297502.136,71.777,36.133,44.434,84.961,51.270
1734297502.140,96.680,34.180,48.340,85.449,98.633
1734297502.144,88.867,26.855,46.875,98.633,84.961
1734297502.148,60.547,23.438,42.480,93.750,20.508
1734297502.152,53.711,26.367,42.480,79.102,56.641
1734297502.156,86.914,30.762,43.945,89.844,85.938
1734297502.159,94.238,29.297,44.434,95.703,64.941
1734297502.163,68.359,25.879,47.852,84.473,-21.484
1734297502.167,53.711,25.391,48.828,63.965,-119.141
1734297502.171,63.965,26.367,46.387,72.754,-21.484
1734297502.175,80.078,29.785,45.410,87.402,72.266
1734297502.179,101.562,32.227,48.340,80.078,70.312
1734297502.183,79.590,33.203,48.828,83.496,13.184
1734297502.187,44.434,35.645,48.828,75.684,4.395
1734297502.191,66.895,34.668,49.805,77.148,64.453
1734297502.195,82.031,30.762,46.387,81.543,84.961
1734297502.198,61.523,31.250,46.387,76.172,76.660
1734297502.202,53.711,32.227,49.805,68.359,42.480
1734297502.206,72.266,34.668,48.340,81.543,9.277
1734297502.210,80.566,33.691,46.387,91.797,7.324
1734297502.214,64.941,31.738,42.480,72.266,52.246
1734297502.218,65.918,34.180,40.527,63.477,49.805
1734297502.222,87.402,35.156,47.363,75.195,-72.266
1734297502.226,69.336,33.691,46.387,79.102,-49.316
1734297502.230,58.594,33.691,43.945,83.496,74.219
1734297502.234,69.336,34.668,47.852,71.289,45.898
1734297502.238,67.871,36.621,44.922,59.082,14.648
1734297502.241,53.223,39.062,38.574,68.359,50.781
1734297502.245,57.129,39.062,33.203,65.430,84.961
1734297502.249,66.406,36.621,36.133,68.848,47.852
1734297502.253,71.777,34.668,39.551,63.477,52.246
1734297502.257,87.891,35.156,40.527,49.316,19.043
1734297502.261,64.453,34.180,41.016,51.758,-55.664
1734297502.265,30.762,29.785,38.574,49.316,6.348
1734297502.269,38.574,29.785,41.992,48.828,58.594
1734297502.273,61.523,34.668,45.410,56.152,69.336
1734297502.277,68.359,35.645,43.457,55.664,37.109
1734297502.280,46.387,33.691,43.945,52.246,19.043
1734297502.284,53.711,35.645,47.363,41.504,38.574
1734297502.288,58.105,35.156,45.898,43.457,50.293
1734297502.292,33.691,31.738,41.992,67.871,78.613
1734297502.296,38.086,29.785,38.574,67.383,52.246
1734297502.300,36.133,28.809,36.133,41.016,-22.461
1734297502.304,27.832,26.367,37.109,32.715,-27.832
1734297502.308,35.645,26.855,36.621,40.039,12.207
1734297502.312,34.180,31.250,32.715,44.434,80.566
1734297502.316,47.852,34.180,32.715,29.785,-49.805
1734297502.320,57.617,30.762,31.250,22.461,-110.840
1734297502.323,37.109,30.762,34.668,41.016,71.289
1734297502.327,35.156,34.180,37.598,61.035,93.750
1734297502.331,52.734,35.156,35.156,48.340,32.227
1734297502.335,39.551,31.250,35.645,29.785,6.836
1734297502.339,48.340,29.297,36.133,50.293,73.242
1734297502.343,68.848,31.250,36.133,56.641,98.145
1734297502.347,40.039,32.227,31.250,45.410,49.316
1734297502.351,5.859,33.203,32.227,42.969,-21.484
1734297502.355,20.020,31.250,35.645,21.484,-96.680
1734297502.359,36.133,28.320,30.762,29.785,16.602
1734297502.363,35.156,24.902,29.785,45.410,94.238
1734297502.366,43.945,20.996,32.227,29.297,93.750
1734297502.370,51.270,22.949,33.691,26.367,67.383
1734297502.374,36.133,24.902,34.180,35.156,52.734
1734297502.378,28.320,23.438,32.715,45.898,77.148
1734297502.382,32.227,23.926,27.344,42.969,59.570
1734297502.386,28.320,23.926,25.391,31.250,71.777
1734297502.390,22.949,25.391,29.297,27.344,21.484
1734297502.394,32.227,27.832,29.785,39.551,-22.949
1734297502.398,38.574,23.926,25.879,45.410,-16.602
1734297502.402,35.645,20.020,24.414,24.414,10.254
1734297502.405,44.434,21.973,22.949,30.762,91.309
1734297502.409,46.387,26.855,27.832,57.617,0.977
1734297502.413,31.738,31.738,32.715,46.387,-71.777
1734297502.417,20.508,28.809,31.738,29.297,23.926
1734297502.421,27.832,29.297,27.832,22.461,84.473
1734297502.425,26.855,32.715,27.832,24.414,88.867
1734297502.429,18.066,31.250,30.273,33.203,30.273
1734297502.433,41.504,30.273,26.367,28.320,29.297
1734297502.437,40.039,26.855,24.414,17.090,46.875
1734297502.441,11.230,24.414,27.344,21.484,43.945
1734297502.445,23.926,25.391,30.762,39.062,-17.090
1734297502.448,15.625,25.391,25.391,19.043,-118.164
1734297502.452,4.883,23.926,18.555,0.488,-32.227
1734297502.456,15.625,21.484,22.461,20.508,107.910
1734297502.460,27.832,22.461,22.949,28.809,117.676
1734297502.464,25.391,26.855,20.020,27.344,47.852
1734297502.468,21.973,25.391,17.578,17.578,24.902
1734297502.472,27.832,26.367,14.160,17.090,85.938
1734297502.476,22.461,29.297,17.578,36.133,106.934
1734297502.480,23.438,30.273,24.414,47.852,78.125
1734297502.484,23.438,31.738,27.344,31.738,43.945
1734297502.488,31.738,30.762,28.809,22.949,20.996
1734297502.491,45.898,36.133,32.715,40.527,21.973
1734297502.495,32.227,38.574,32.227,53.223,35.156
1734297502.499,22.949,33.203,27.344,55.176,63.477
1734297502.503,52.734,31.250,32.715,43.457,-35.156
1734297502.507,52.734,32.715,36.133,25.879,-76.172
1734297502.511,24.902,31.250,34.668,35.156,41.504
1734297502.515,17.578,32.227,38.574,35.156,60.547
1734297502.519,28.809,35.156,41.504,30.762,33.691
1734297502.523,34.668,33.691,41.504,38.574,40.039
1734297502.527,29.297,35.645,41.504,47.363,97.168
1734297502.530,40.527,37.109,43.945,46.875,87.402
1734297502.534,38.086,34.180,47.363,33.691,26.367
1734297502.538,35.645,35.645,44.922,30.762,-23.926
1734297502.542,36.621,37.598,43.945,46.387,-48.340
1734297502.546,41.016,37.598,41.016,42.480,-0.488
1734297502.550,36.621,41.016,37.109,22.461,49.805
1734297502.554,46.875,45.410,30.273,20.508,67.383
1734297502.558,53.223,45.898,25.879,40.039,38.086
1734297502.562,27.832,38.574,24.414,54.688,51.270
1734297502.566,13.672,37.598,25.879,30.762,18.066
1734297502.570,11.719,44.434,30.762,10.742,7.812
1734297502.573,47.852,45.410,31.738,25.879,66.406
1734297502.577,50.781,42.480,33.691,46.875,28.809
1734297502.581,28.320,42.969,37.109,40.527,-19.531
1734297502.585,31.738,41.992,41.992,32.227,-34.180
1734297502.589,29.785,39.551,40.527,45.898,22.461
1734297502.593,33.203,37.598,37.109,49.316,92.285
1734297502.597,38.086,36.621,40.039,43.457,-43.457
1734297502.601,32.715,35.156,35.156,32.227,-87.402
1734297502.605,40.039,34.668,35.645,24.902,66.895
1734297502.609,42.969,33.203,38.086,47.363,119.629
1734297502.613,15.625,31.250,35.645,48.340,66.406
1734297502.616,18.555,33.203,38.574,25.879,-5.371
1734297502.620,38.574,33.691,41.016,22.949,55.664
1734297502.624,44.922,33.691,41.992,35.645,50.293
1734297502.628,38.086,36.621,43.457,48.828,10.742
1734297502.632,33.691,41.504,44.922,41.992,-41.016
1734297502.636,42.480,42.480,41.504,30.762,-117.188
1734297502.640,38.086,40.527,38.086,33.691,3.906
1734297502.644,32.715,41.992,42.480,39.551,112.305
1734297502.648,40.039,38.086,41.504,51.758,93.750
1734297502.652,34.668,32.227,39.551,32.227,34.668
1734297502.655,10.742,28.809,40.039,20.020,43.457
1734297502.659,3.418,30.762,39.551,44.922,81.055
1734297502.663,17.578,32.715,35.645,41.016,61.035
1734297502.667,24.414,28.809,32.227,17.578,55.176
1734297502.671,36.133,26.855,35.645,20.996,35.156
1734297502.675,25.391,28.320,33.691,39.551,22.461
1734297502.679,16.113,28.320,27.832,28.809,-16.602
1734297502.683,22.461,29.297,27.832,15.625,-72.754
1734297502.687,44.434,32.227,32.715,27.832,-6.836
1734297502.691,54.688,36.133,40.039,38.086,-61.035
1734297502.695,26.855,34.668,38.574,43.457,-75.684
1734297502.698,30.762,31.738,34.180,31.250,33.203
1734297502.702,33.203,32.227,36.621,20.508,36.133
1734297502.706,24.414,33.203,37.598,40.039,42.480
1734297502.710,24.414,32.715,35.645,53.223,18.555
1734297502.714,25.879,29.785,37.109,40.039,40.039
1734297502.718,24.902,26.855,40.527,21.484,53.223
1734297502.722,33.203,30.762,39.062,24.414,35.156
1734297502.726,36.133,34.180,38.086,50.293,-5.859
1734297502.730,24.414,36.621,39.062,43.457,-87.402
1734297502.734,30.762,34.668,38.574,22.949,-14.648
1734297502.737,22.461,30.762,39.062,19.531,42.969
1734297502.741,14.648,27.832,36.621,38.574,47.852
1734297502.745,47.363,25.391,35.156,53.711,41.504
1734297502.749,58.594,32.715,38.574,40.039,18.066
1734297502.753,27.832,32.715,40.527,42.480,48.828
1734297502.757,36.133,29.785,39.551,49.805,68.848
1734297502.761,44.434,33.691,41.992,44.434,87.402
1734297502.765,19.531,31.738,38.574,35.156,26.855
1734297502.769,33.691,28.809,33.203,21.973,-34.180
1734297502.773,47.852,32.715,34.180,24.414,-15.625
1734297502.777,29.297,36.133,36.133,32.715,32.227
1734297502.780,28.809,33.691,39.551,39.551,79.590
1734297502.784,29.297,29.785,41.992,28.320,-59.082
1734297502.788,13.184,26.367,41.016,38.086,-75.195
1734297502.792,12.695,26.367,37.598,52.246,74.219
1734297502.796,15.137,26.855,34.180,33.691,40.527
1734297502.800,13.672,24.902,37.109,20.508,-8.301
1734297502.804,41.992,25.879,37.598,14.648,7.812
1734297502.808,51.270,25.879,33.691,23.438,75.684
1734297502.812,31.250,23.438,31.250,41.992,98.145
1734297502.816,3.418,25.879,28.809,27.832,39.551
1734297502.820,19.531,30.273,31.250,19.043,-40.039
1734297502.823,34.180,33.691,31.250,33.203,-82.031
1734297502.827,15.625,34.668,29.297,50.293,17.090
1734297502.831,24.414,37.598,30.273,43.457,80.078
1734297502.835,21.484,38.574,29.785,12.207,57.129
1734297502.839,33.691,33.691,33.203,9.766,30.273
1734297502.843,34.180,31.250,33.203,23.926,57.617
1734297502.847,29.297,33.691,25.879,27.832,90.820
1734297502.851,43.457,34.668,25.879,20.996,84.961
1734297502.855,35.645,35.156,24.902,23.438,57.617
1734297502.859,28.320,34.668,20.508,30.273,6.348
1734297502.862,24.902,35.645,21.973,26.367,-18.555
1734297502.866,17.578,38.086,24.414,21.484,-60.059
1734297502.870,7.324,35.645,22.461,21.484,-26.855
1734297502.874,10.254,29.785,21.484,27.832,94.727
1734297502.878,27.344,33.691,20.020,36.133,1.953
1734297502.882,27.832,39.062,13.184,4.395,-77.148
1734297502.886,28.809,33.691,8.301,-5.859,27.832
1734297502.890,34.180,33.203,13.184,31.738,93.750
1734297502.894,29.297,39.062,20.996,24.414,72.266
1734297502.898,21.484,41.016,23.438,9.766,16.602
1734297502.902,14.648,41.016,23.926,13.672,72.266
1734297502.905,11.719,38.086,26.367,23.926,104.492
1734297502.909,31.738,34.668,29.785,32.227,68.359
1734297502.913,42.480,33.203,34.668,31.738,-19.043
1734297502.917,25.391,32.715,34.668,28.320,-94.238
1734297502.921,13.184,31.738,34.180,30.273,10.254
1734297502.925,22.949,30.762,32.227,36.621,76.172
1734297502.929,26.367,29.297,30.273,23.438,88.867
1734297502.933,20.996,31.250,30.273,13.184,48.340
1734297502.937,19.043,32.715,29.785,22.461,5.859
1734297502.941,13.184,30.762,30.762,41.992,74.219
1734297502.945,27.344,31.250,35.645,53.711,87.891
1734297502.948,27.344,31.738,40.527,39.551,56.152
1734297502.952,26.367,34.180,42.969,25.391,16.113
1734297502.956,35.645,35.156,42.480,32.715,22.461
1734297502.960,46.387,35.156,42.480,45.898,16.113
1734297502.964,43.457,33.203,41.504,40.527,-1.465
1734297502.968,31.738,31.738,35.645,26.367,61.523
1734297502.972,25.879,33.203,37.109,29.785,1.465
1734297502.976,28.320,35.156,40.039,46.875,-19.043
1734297502.980,31.738,32.227,34.668,62.988,80.566
1734297502.984,30.762,30.273,33.203,48.828,62.988
1734297502.987,41.016,33.691,35.645,43.945,50.293
1734297502.991,43.945,35.156,35.645,47.363,46.387
1734297502.995,54.199,36.133,34.668,44.434,63.965
1734297502.999,54.688,34.668,37.109,41.992,66.406
1734297503.003,26.367,32.227,39.062,29.785,33.203
1734297503.007,30.273,38.086,39.062,40.527,-7.324
1734297503.011,38.086,42.969,36.621,45.898,-67.871
1734297503.015,33.691,40.527,33.203,39.551,-17.090
1734297503.019,26.855,35.156,33.203,22.949,50.781
1734297503.023,33.691,33.203,35.645,25.879,85.938
1734297503.027,39.062,37.109,35.645,36.133,76.172
1734297503.030,20.508,40.527,35.645,45.410,15.625
1734297503.034,7.324,38.086,30.273,50.293,42.480
1734297503.038,30.273,38.086,27.344,27.344,76.172
1734297503.042,34.180,37.598,30.762,29.297,90.820
1734297503.046,36.621,31.250,30.762,35.156,44.434
1734297503.050,38.574,29.297,29.297,20.020,-9.277
1734297503.054,17.090,31.250,32.715,13.672,-0.488
1734297503.058,9.277,29.297,32.715,18.555,55.664
1734297503.062,13.184,29.785,31.250,36.133,114.258
1734297503.066,13.184,32.227,33.203,29.785,-42.969
1734297503.069,9.277,29.785,31.738,5.859,-83.496
1734297503.073,31.250,26.855,30.273,31.250,95.703
1734297503.077,41.504,25.879,33.203,45.898,109.863
1734297503.081,23.438,28.809,33.203,34.668,55.664
1734297503.085,24.902,31.738,34.180,12.695,13.184
1734297503.089,38.086,31.250,33.691,23.438,30.762
1734297503.093,33.203,31.738,28.809,54.199,70.801
1734297503.097,18.555,31.738,27.832,41.992,30.273
1734297503.101,3.906,31.250,28.320,23.438,-69.336
1734297503.105,19.043,29.297,29.785,5.371,-116.699
1734297503.109,34.668,27.344,29.297,30.273,-0.977
1734297503.112,34.180,28.809,27.344,41.992,96.680
1734297503.116,18.066,25.879,26.855,27.344,80.078
1734297503.120,5.859,25.879,29.785,26.855,48.340
1734297503.124,36.133,26.367,31.738,23.926,56.641
1734297503.128,36.621,27.344,33.203,32.715,85.938
1734297503.132,11.230,25.879,35.156,32.227,52.734
1734297503.136,6.836,20.996,33.691,21.484,41.504
1734297503.140,16.602,20.508,32.715,28.320,48.340
1734297503.144,28.809,23.438,31.250,42.969,36.133
1734297503.148,28.809,21.484,24.902,49.805,-4.883
1734297503.152,25.879,19.531,28.809,47.363,-18.555
1734297503.155,29.785,18.066,34.180,26.855,49.316
1734297503.159,24.414,19.531,35.156,8.789,-28.320
1734297503.163,36.621,20.996,36.621,9.766,-72.754
1734297503.167,25.391,20.020,37.109,21.973,28.320
1734297503.171,0.000,22.949,38.086,26.367,86.914
1734297503.175,20.020,27.832,36.133,36.621,114.258
1734297503.179,38.574,32.227,36.621,48.828,62.500
1734297503.183,22.461,31.738,38.574,27.344,68.359
1734297503.187,9.277,29.785,33.691,1.953,62.988
1734297503.191,16.113,31.738,34.668,8.301,37.109
1734297503.194,11.719,35.645,39.062,15.625,-11.230
1734297503.198,13.184,40.527,38.086,0.977,-91.309
1734297503.202,-10.254,41.504,34.180,-25.879,-62.988
1734297503.206,-37.109,43.457,33.691,-11.230,10.742
1734297503.210,-13.672,45.898,34.180,-4.883,86.426
1734297503.214,-20.996,41.504,34.668,-21.973,36.133
1734297503.218,-43.457,40.039,33.691,-30.273,18.555
1734297503.222,-45.898,42.969,30.762,-47.852,91.309
1734297503.226,-53.711,43.945,31.738,-39.551,80.078
1734297503.230,-47.852,48.340,30.762,-31.738,74.707
1734297503.234,-39.551,53.711,27.832,-45.410,44.922
1734297503.237,-18.555,53.711,24.902,-55.176,1.953
1734297503.241,-6.348,43.945,20.020,-51.758,-18.066
1734297503.245,-47.363,37.109,20.996,-38.574,1.953
1734297503.249,-69.336,37.598,24.414,-41.016,53.223
1734297503.253,-45.410,38.086,22.461,-38.574,-49.805
1734297503.257,-23.926,35.645,20.020,-31.250,-37.598
1734297503.261,-25.879,34.668,22.949,-20.508,67.383
1734297503.265,-31.250,37.109,23.438,-8.789,60.059
1734297503.269,-2.441,36.133,24.414,-4.395,38.574
1734297503.273,21.484,32.227,27.832,-4.395,23.438
1734297503.277,14.160,31.250,27.832,1.953,96.191
1734297503.280,9.766,30.762,30.273,9.766,82.031
1734297503.284,17.090,32.715,29.785,11.230,8.301
1734297503.288,23.438,36.133,27.344,12.695,-47.363
1734297503.292,7.324,33.691,29.785,25.879,-104.004
1734297503.296,10.742,31.738,28.809,21.973,-12.695
1734297503.300,16.602,32.715,31.738,21.484,64.453
1734297503.304,15.137,30.273,34.668,33.203,73.730
1734297503.308,49.805,31.250,35.156,38.574,66.406
1734297503.312,64.941,32.715,36.133,43.945,50.781
1734297503.316,28.809,31.250,37.109,42.969,74.219
1734297503.319,17.578,30.762,37.109,42.480,59.570
1734297503.323,40.527,31.250,35.645,30.762,76.660
1734297503.327,25.879,28.809,34.180,22.461,58.105
1734297503.331,11.230,24.902,33.691,32.715,-12.695
1734297503.335,30.273,23.438,31.250,30.762,-41.992
1734297503.339,41.016,24.414,28.320,30.273,28.809
1734297503.343,42.969,24.902,30.273,54.199,105.469
1734297503.347,47.363,24.902,35.156,65.430,-25.879
1734297503.351,41.992,27.344,35.645,43.457,-76.172
1734297503.355,43.945,26.367,33.203,33.203,66.406
1734297503.359,55.176,26.855,29.297,42.969,60.547
1734297503.362,58.594,27.344,31.250,63.965,41.504
1734297503.366,40.527,27.344,37.109,63.965,27.832
1734297503.370,17.090,26.367,37.109,41.992,47.363
1734297503.374,43.945,28.809,35.156,48.340,84.961
1734297503.378,56.641,29.297,31.250,58.594,35.645
1734297503.382,44.434,28.809,27.832,52.246,-48.340
1734297503.386,46.387,30.762,25.391,52.734,-118.164
1734297503.390,62.500,31.738,23.438,57.129,1.465
1734297503.394,55.176,32.715,28.809,54.688,109.375
1734297503.398,41.016,34.180,32.227,51.270,75.684
1734297503.401,43.457,39.062,30.273,31.250,36.133
1734297503.405,61.523,38.574,27.344,22.949,42.480
1734297503.409,72.754,37.598,30.273,45.410,114.746
1734297503.413,24.414,38.086,32.715,52.734,109.863
1734297503.417,15.137,38.086,29.297,42.969,58.594
1734297503.421,33.691,38.574,31.250,45.898,26.367
1734297503.425,35.156,36.621,33.203,52.734,7.812
1734297503.429,30.762,29.297,27.344,55.664,0.000
1734297503.433,34.180,26.855,26.855,48.340,-9.766
1734297503.437,44.922,24.902,31.738,42.969,7.812
1734297503.441,44.922,23.926,29.297,43.945,-50.293
1734297503.444,55.664,27.344,27.344,39.551,-55.664
1734297503.448,35.645,27.832,27.832,49.805,65.430
1734297503.452,28.809,26.855,28.320,25.391,62.012
1734297503.456,30.273,28.320,26.855,19.043,29.785
1734297503.460,21.484,29.297,25.879,45.410,26.367
1734297503.464,24.902,30.273,27.832,43.457,45.898
1734297503.468,21.484,29.785,27.344,27.832,35.645
1734297503.472,32.227,30.273,25.391,25.879,23.926
1734297503.476,42.969,32.227,29.785,40.527,-15.625
1734297503.480,37.109,28.320,36.621,48.828,-101.562
1734297503.484,31.250,28.809,39.551,40.527,-38.086
1734297503.487,46.387,31.250,38.574,29.297,73.730
1734297503.491,60.059,31.738,36.621,38.086,78.613
1734297503.495,34.180,29.785,30.273,48.828,31.250
1734297503.499,22.949,27.832,31.250,46.875,28.320
1734297503.503,36.621,29.297,39.551,35.645,32.715
1734297503.507,39.551,27.832,38.574,50.293,48.828
1734297503.511,35.645,24.902,34.668,53.223,88.867
1734297503.515,39.062,26.855,32.715,24.902,37.598
1734297503.519,54.688,25.879,26.855,21.973,-18.555
1734297503.523,38.086,21.484,23.926,33.691,-5.371
1734297503.526,20.020,19.043,23.926,47.852,69.824
1734297503.530,32.715,20.508,23.438,47.363,107.422
1734297503.534,48.340,26.367,20.508,32.227,-70.801
1734297503.538,37.109,26.367,19.043,22.949,-80.566
1734297503.542,23.926,22.949,21.484,43.457,94.238
1734297503.546,34.180,24.902,24.902,59.570,122.070
1734297503.550,34.668,29.785,23.926,28.320,32.227
1734297503.554,52.734,30.762,23.438,18.066,-17.578
1734297503.558,65.918,26.367,22.949,34.180,86.426
1734297503.562,47.363,23.438,24.902,44.922,94.727
1734297503.566,36.621,25.391,31.250,47.363,57.129
1734297503.569,30.762,27.344,32.227,32.715,7.324
1734297503.573,21.973,24.414,33.691,39.062,-48.828
1734297503.577,22.949,18.066,30.273,50.293,15.137
1734297503.581,15.137,14.648,22.949,44.922,49.316
1734297503.585,26.855,15.625,20.996,38.574,45.410
1734297503.589,35.645,14.160,18.066,39.551,57.129
1734297503.593,28.320,16.602,18.066,47.363,80.078
1734297503.597,17.578,20.020,18.555,50.781,93.262
1734297503.601,7.812,19.043,16.602,40.039,62.012
1734297503.605,18.066,20.020,22.949,37.109,71.777
1734297503.609,29.297,22.461,29.785,38.086,31.250
1734297503.612,37.109,27.344,29.785,37.598,-9.277
1734297503.616,27.344,28.320,27.344,36.133,-12.695
1734297503.620,23.926,26.855,23.438,26.367,-11.230
1734297503.624,37.109,29.297,27.344,30.762,83.008
1734297503.628,36.133,30.273,33.691,30.273,-20.996
1734297503.632,11.230,33.203,33.203,34.668,-91.309
1734297503.636,10.254,31.250,33.691,33.691,64.941
1734297503.640,24.414,30.762,34.668,26.367,104.492
1734297503.644,33.691,31.250,36.621,39.551,102.539
1734297503.648,46.875,29.785,38.574,49.316,42.969
1734297503.651,25.879,29.297,39.062,45.898,43.457
1734297503.655,15.137,29.297,35.645,41.016,58.594
1734297503.659,30.273,31.738,29.785,43.457,44.922
1734297503.663,34.668,30.273,31.250,36.133,8.789
1734297503.667,47.852,28.809,30.762,14.160,-101.074
1734297503.671,41.504,28.320,30.273,17.578,-20.020
1734297503.675,29.297,30.762,33.691,35.645,89.844
1734297503.679,28.320,32.715,33.691,55.176,83.496
1734297503.683,33.203,30.762,36.133,48.340,30.273
1734297503.687,31.250,32.227,41.504,20.020,6.836
1734297503.691,23.926,30.273,41.992,34.180,58.105
1734297503.694,40.039,32.227,40.039,53.711,78.613
1734297503.698,50.781,33.691,41.504,40.039,76.172
1734297503.702,24.902,25.391,38.086,22.461,41.016
1734297503.706,20.996,24.414,35.645,22.949,6.836
1734297503.710,35.645,27.344,35.645,39.062,2.930
1734297503.714,16.602,25.879,38.086,44.434,31.738
1734297503.718,12.207,26.855,34.668,30.273,71.777
1734297503.722,25.391,27.344,30.273,14.160,-35.645
1734297503.726,26.855,27.344,32.715,29.297,-105.469
1734297503.730,33.691,28.809,32.227,46.387,23.438
1734297503.734,36.621,26.855,32.227,33.203,72.266
1734297503.737,26.367,24.902,33.691,16.602,35.156
1734297503.741,34.180,26.367,35.645,12.695,33.203
1734297503.745,29.785,28.320,36.621,28.320,80.566
1734297503.749,-1.465,27.832,36.621,41.504,65.918
1734297503.753,4.883,29.297,40.527,28.320,17.578
1734297503.757,28.320,34.180,44.922,20.508,-19.531
1734297503.761,19.043,34.180,46.875,18.555,-77.637
1734297503.765,17.090,30.273,41.992,18.066,-28.809
1734297503.769,20.508,25.879,32.227,14.648,60.547
1734297503.773,26.367,23.438,25.879,24.902,93.750
1734297503.776,34.668,25.391,27.832,32.227,67.871
1734297503.780,31.250,28.320,28.809,7.812,2.930
1734297503.784,10.254,29.785,26.855,9.277,-9.277
1734297503.788,0.488,29.785,29.785,24.902,48.340
1734297503.792,24.414,28.809,33.203,35.156,97.656
1734297503.796,20.996,29.785,34.180,41.504,67.383
1734297503.800,6.348,32.715,36.621,21.484,-11.719
1734297503.804,9.766,31.738,34.180,6.348,-41.992
1734297503.808,29.785,31.250,31.738,22.461,5.859
1734297503.812,52.246,30.762,34.668,35.645,85.449
1734297503.816,43.457,31.738,37.598,35.645,-35.645
1734297503.819,17.578,28.809,39.062,33.691,-107.910
1734297503.823,20.508,25.879,38.574,21.973,46.387
1734297503.827,13.672,26.855,38.086,20.996,89.355
1734297503.831,16.602,28.809,36.621,32.715,55.664
1734297503.835,27.344,30.273,33.203,21.973,13.672
1734297503.839,25.879,27.832,32.715,19.043,36.621
1734297503.843,26.367,25.391,33.203,34.668,64.453
1734297503.847,32.715,27.344,33.203,41.504,25.391
1734297503.851,50.781,30.273,37.109,32.715,-62.988
1734297503.855,47.852,30.273,38.574,24.414,-111.328
1734297503.858,26.855,31.738,35.645,29.297,-9.766
1734297503.862,19.043,32.227,35.645,51.270,96.680
1734297503.866,18.555,33.203,37.109,49.805,98.633
1734297503.870,20.996,33.203,38.086,17.578,43.457
1734297503.874,31.738,33.203,38.574,26.367,48.828
1734297503.878,40.039,33.691,40.527,45.410,93.750
1734297503.882,39.551,32.227,41.016,40.527,62.012
1734297503.886,29.297,30.273,38.086,30.273,57.129
1734297503.890,24.414,31.250,40.039,35.645,76.660
1734297503.894,30.273,32.227,41.016,47.852,68.848
1734297503.898,20.996,34.668,39.062,28.320,10.742
1734297503.901,24.414,36.133,37.598,18.066,-62.012
1734297503.905,39.062,35.156,34.668,31.738,12.207
1734297503.909,45.898,36.621,36.133,36.133,-22.461
1734297503.913,32.227,38.086,37.598,38.086,-55.176
1734297503.917,41.504,37.109,33.203,32.715,34.668
1734297503.921,57.617,38.574,32.715,33.691,63.965
1734297503.925,24.414,41.016,35.645,54.688,71.289
1734297503.929,31.250,41.992,34.668,69.336,37.109
1734297503.933,40.527,39.551,34.180,47.363,42.480
1734297503.937,19.531,39.062,35.156,29.297,51.758
1734297503.941,23.438,38.086,32.227,48.340,44.922
1734297503.944,34.180,35.645,27.344,47.363,20.020
1734297503.948,40.039,33.691,23.438,30.273,-46.387
1734297503.952,47.363,33.203,22.949,12.207,-7.324
1734297503.956,31.250,31.738,25.391,19.043,73.242
1734297503.960,32.227,32.227,25.879,43.457,89.844
1734297503.964,43.457,37.109,28.320,51.270,45.410
1734297503.968,14.648,38.086,27.832,39.551,27.344
1734297503.972,14.160,39.551,23.438,24.414,86.914
1734297503.976,17.578,44.434,24.902,40.527,86.914
1734297503.980,30.273,46.387,23.926,36.133,80.566
1734297503.983,32.227,43.457,22.949,13.184,36.621
1734297503.987,27.344,38.086,23.438,22.461,-2.441
1734297503.991,40.039,35.645,22.461,37.109,7.324
1734297503.995,38.574,34.668,26.855,34.668,39.062
1734297503.999,22.461,34.668,28.320,38.086,84.473
1734297504.003,31.738,38.086,29.297,31.250,-50.293
1734297504.007,38.086,41.504,35.156,25.879,-74.707
1734297504.011,35.645,42.480,34.668,40.527,83.008
1734297504.015,55.664,41.992,31.250,47.852,66.406
1734297504.019,57.617,40.039,36.133,36.133,35.645
1734297504.023,39.551,39.551,35.645,27.344,54.688
1734297504.026,33.691,39.062,31.738,53.223,99.121
1734297504.030,31.250,37.109,34.668,63.477,85.938
1734297504.034,20.508,39.551,31.738,41.504,43.945
1734297504.038,26.367,42.969,32.227,44.922,-9.277
1734297504.042,44.922,40.039,36.133,47.363,-78.613
1734297504.046,36.133,39.062,38.574,46.387,5.371
1734297504.050,29.297,39.062,38.086,50.781,78.125
1734297504.054,41.016,35.645,38.574,35.645,65.918
1734297504.058,40.039,36.133,40.527,35.156,45.410
1734297504.062,31.738,33.691,37.598,38.574,39.062
1734297504.066,24.414,28.320,35.156,31.250,67.383
1734297504.069,24.414,29.785,35.645,28.320,77.637
1734297504.073,38.086,33.691,34.180,34.180,42.480
1734297504.077,53.223,33.203,33.203,41.992,34.668
1734297504.081,55.176,32.227,35.156,43.945,15.137
1734297504.085,52.734,32.715,32.715,36.133,-13.672
1734297504.089,38.574,30.273,30.273,26.855,57.129
1734297504.093,21.484,27.832,31.250,41.016,120.117
1734297504.097,4.883,27.344,33.203,46.875,-32.715
1734297504.101,2.441,26.855,32.227,22.461,-82.031
1734297504.105,29.297,28.320,30.762,24.902,76.172
1734297504.108,46.875,26.367,36.621,39.551,99.121
1734297504.112,46.387,21.973,37.598,45.410,63.965
1734297504.116,55.176,21.484,35.645,31.250,15.625
1734297504.120,41.016,26.367,37.598,8.301,31.250
1734297504.124,19.043,23.438,37.109,26.367,75.684
1734297504.128,21.484,21.973,37.598,36.133,83.496
1734297504.132,17.578,27.832,38.574,25.391,-8.789
1734297504.136,34.180,28.809,39.062,18.555,-125.000
1734297504.140,42.969,30.762,41.504,23.438,5.859
1734297504.144,24.414,31.250,40.039,43.457,106.934
1734297504.148,20.508,27.344,34.180,41.992,76.660
1734297504.151,36.133,26.855,34.668,36.133,30.762
1734297504.155,45.410,31.250,35.645,29.785,27.832
1734297504.159,53.223,34.668,32.227,42.480,114.746
1734297504.163,25.879,35.645,29.785,62.988,111.816
1734297504.167,7.812,34.180,28.320,36.133,59.082
1734297504.171,29.297,34.668,27.344,14.648,36.621
1734297504.175,46.387,35.645,28.320,32.715,49.316
1734297504.179,33.691,35.645,28.320,40.527,10.742
1734297504.183,21.973,37.109,33.203,45.898,-19.531
1734297504.187,27.832,38.086,30.762,26.367,27.344
1734297504.190,24.902,36.621,25.879,14.160,-70.312
1734297504.194,27.832,35.645,24.414,39.551,-69.336
1734297504.198,30.273,30.762,25.879,34.180,20.996
1734297504.202,42.969,29.785,31.250,16.602,30.273
1734297504.206,43.945,32.715,32.227,25.391,65.918
1734297504.210,11.719,31.250,32.227,41.016,42.969
1734297504.214,20.020,32.227,30.762,39.551,64.453
1734297504.218,31.250,34.180,31.250,20.508,45.410
1734297504.222,21.973,28.320,35.156,22.461,12.207
1734297504.226,32.227,28.320,42.480,33.691,2.930
1734297504.230,30.273,31.250,44.922,38.574,-67.871
1734297504.233,3.906,25.391,46.875,23.926,-21.484
1734297504.237,-5.371,23.926,50.293,19.531,63.477
1734297504.241,19.531,23.438,46.387,38.086,95.703
1734297504.245,21.973,23.926,47.363,43.945,75.684
1734297504.249,5.859,25.391,53.223,32.715,2.930
1734297504.253,1.953,19.043,54.688,20.020,14.160
1734297504.257,7.324,16.602,57.617,35.645,91.309
1734297504.261,28.320,20.508,66.406,56.152,120.117
1734297504.265,31.738,21.973,70.312,53.711,57.617
1734297504.269,29.297,25.879,70.801,41.992,-25.879
1734297504.273,39.062,24.414,66.895,43.457,-12.695
1734297504.276,27.344,25.879,64.941,58.105,53.223
1734297504.280,30.273,28.320,64.941,56.641,82.031
1734297504.284,41.504,28.809,64.453,52.734,-62.988
1734297504.288,32.715,30.762,65.430,43.457,-99.121
1734297504.292,28.809,30.762,63.965,44.434,66.895
1734297504.296,29.297,27.832,62.012,59.082,90.332
1734297504.300,29.297,26.367,59.570,49.805,63.965
1734297504.304,36.133,30.273,54.199,28.320,10.742
1734297504.308,49.316,32.715,51.758,24.414,25.879
1734297504.312,22.949,31.250,52.246,32.715,71.289
1734297504.315,2.441,27.832,48.828,26.855,36.133
1734297504.319,10.742,26.855,45.898,19.531,-23.926
1734297504.323,21.484,28.809,46.387,15.137,-79.102
1734297504.327,27.344,30.762,41.992,23.438,17.090
1734297504.331,3.906,31.250,39.551,33.691,107.910
1734297504.335,12.695,30.762,43.457,22.461,79.590
1734297504.339,26.855,33.203,42.969,7.324,49.316
1734297504.343,25.391,33.691,42.969,21.973,68.359
1734297504.347,21.973,30.273,41.016,37.109,84.961
1734297504.351,10.742,34.668,42.969,35.156,41.992
1734297504.355,19.043,38.574,46.387,26.855,47.363
1734297504.358,31.738,35.156,45.898,31.250,61.523
1734297504.362,22.949,34.180,45.410,35.156,30.762
1734297504.366,9.277,36.133,41.016,20.020,-20.996
1734297504.370,27.344,33.203,37.598,12.695,-0.977
1734297504.374,30.273,29.297,41.992,19.043,91.797
1734297504.378,9.766,30.273,44.922,29.297,-20.020
1734297504.382,3.906,28.320,39.551,14.648,-98.145
1734297504.386,5.859,24.902,37.598,7.324,30.762
1734297504.390,7.812,24.902,39.062,20.508,90.820
1734297504.394,17.090,24.902,35.156,37.109,69.824
1734297504.398,15.625,23.926,30.762,40.039,35.156
1734297504.401,16.602,19.531,27.344,26.855,75.195
1734297504.405,26.367,20.996,26.855,19.531,79.590
1734297504.409,21.973,24.902,27.832,29.785,67.383
1734297504.413,20.020,20.020,27.832,46.387,16.602
1734297504.417,20.996,19.531,27.832,25.879,-87.402
1734297504.421,35.645,25.879,26.855,11.230,-43.945
1734297504.425,35.156,31.250,23.926,35.156,62.988
1734297504.429,3.418,32.227,23.438,34.668,102.051
1734297504.433,7.812,32.227,25.391,14.648,40.527
1734297504.437,28.809,36.133,27.344,1.953,6.836
1734297504.440,41.504,36.133,26.855,1.953,75.195
1734297504.444,48.340,32.227,21.484,15.137,69.824
1734297504.448,31.738,32.715,19.043,17.090,50.293
1734297504.452,25.391,38.086,16.113,12.207,30.762
1734297504.456,39.062,40.527,10.254,-1.953,-0.977
1734297504.460,43.457,36.621,10.254,8.789,17.578
1734297504.464,44.922,36.133,12.207,32.715,47.363
