timestamps,TP9,AF7,AF8,TP10,Right AUX
1738874094.377,-57.617,-26.855,-24.902,-33.203,0.000
1738874094.381,-48.340,-36.621,-25.391,-41.016,0.000
1738874094.385,-43.457,-33.203,-25.391,-42.480,0.000
1738874094.389,-44.922,-25.391,-22.461,-12.207,0.000
1738874094.393,-33.691,-31.250,-22.461,-0.488,0.000
1738874094.397,-35.645,-34.668,-24.414,-22.461,0.000
1738874094.400,-51.758,-25.879,-29.785,-30.762,0.000
1738874094.404,-49.805,-20.020,-35.645,-32.227,0.000
1738874094.408,-46.875,-27.344,-31.738,-23.926,0.000
1738874094.412,-34.180,-31.250,-29.785,-18.066,0.000
1738874094.416,-26.367,-18.066,-30.762,-30.273,0.000
1738874094.420,-35.156,-22.461,-28.809,-34.668,0.000
1738874094.424,-41.504,-25.879,-26.367,-18.555,0.000
1738874094.428,-45.410,-22.461,-22.949,-24.414,0.000
1738874094.432,-42.969,-23.438,-27.832,-36.133,0.000
1738874094.436,-43.457,-27.344,-30.762,-30.273,0.000
1738874094.440,-45.410,-33.203,-29.785,-21.973,0.000
1738874094.443,-46.875,-30.273,-30.273,-16.602,0.000
1738874094.447,-44.434,-28.809,-23.438,-20.508,0.000
1738874094.451,-34.668,-29.785,-24.902,-24.902,0.000
1738874094.455,-32.715,-34.668,-33.203,-15.625,0.000
1738874094.459,-41.992,-24.902,-33.203,-11.230,0.000
1738874094.463,-44.922,-13.672,-29.785,-19.043,0.000
1738874094.467,-42.480,-16.113,-29.297,-23.438,0.000
1738874094.471,-39.551,-22.461,-27.344,-14.648,0.000
1738874094.475,-35.645,-25.391,-26.367,-16.602,0.000
1738874094.479,-39.062,-22.949,-24.902,-22.461,0.000
1738874094.482,-42.480,-26.855,-24.414,-24.902,0.000
1738874094.486,-36.621,-29.785,-23.438,-27.832,0.000
1738874094.490,-30.273,-25.391,-27.344,-20.996,0.000
1738874094.494,-20.508,-22.461,-28.809,-9.277,0.000
1738874094.498,-30.273,-30.273,-23.926,-13.184,0.000
1738874094.502,-42.969,-35.156,-26.367,-31.738,0.000
1738874094.506,-35.156,-25.879,-28.809,-38.574,0.000
1738874094.510,-25.391,-20.020,-22.949,-28.809,0.000
1738874094.514,-28.809,-20.996,-17.090,-3.418,0.000
1738874094.518,-35.645,-20.996,-16.113,-27.832,0.000
1738874094.522,-45.898,-18.066,-21.484,-46.875,0.000
1738874094.525,-39.551,-16.113,-22.461,-17.578,0.000
1738874094.529,-26.855,-20.996,-21.484,-18.066,0.000
1738874094.533,-34.180,-23.926,-24.414,-23.438,0.000
1738874094.537,-39.062,-22.949,-23.438,-14.648,0.000
1738874094.541,-32.227,-23.926,-21.973,-4.395,0.000
1738874094.545,-25.879,-24.414,-19.043,-5.371,0.000
1738874094.549,-30.273,-21.973,-20.996,-25.391,0.000
1738874094.553,-27.832,-22.949,-20.996,-33.203,0.000
1738874094.557,-27.344,-22.461,-15.625,-22.949,0.000
1738874094.561,-47.363,-22.949,-14.648,-32.715,0.000
1738874094.565,-54.199,-22.949,-14.160,-41.504,0.000
1738874094.568,-41.504,-21.973,-18.066,-32.227,0.000
1738874094.572,-51.758,-20.996,-18.066,-26.367,0.000
1738874094.576,-55.176,-20.508,-16.602,-35.156,0.000
1738874094.580,-48.340,-22.461,-19.043,-33.691,0.000
1738874094.584,-38.086,-22.461,-18.066,-28.320,0.000
1738874094.588,-51.270,-21.973,-18.555,-16.113,0.000
1738874094.592,-53.711,-16.602,-21.484,-25.879,0.000
1738874094.596,-47.852,-18.555,-20.020,-26.367,0.000
1738874094.600,-58.105,-23.926,-17.578,-26.367,0.000
1738874094.604,-36.133,-30.273,-18.555,-32.227,0.000
1738874094.607,-34.668,-26.855,-20.996,-15.137,0.000
1738874094.611,-46.387,-15.625,-22.949,-14.648,0.000
1738874094.615,-36.133,-22.461,-22.949,-10.742,0.000
1738874094.619,-45.898,-29.785,-24.902,-21.973,0.000
1738874094.623,-52.734,-25.391,-23.926,-39.551,0.000
1738874094.627,-47.852,-21.484,-20.508,-29.297,0.000
1738874094.631,-52.734,-22.461,-19.531,-30.273,0.000
1738874094.635,-31.250,-25.879,-22.949,-31.250,0.000
1738874094.639,-29.297,-22.461,-20.996,-24.902,0.000
1738874094.643,-44.922,-20.996,-21.973,-29.297,0.000
1738874094.647,-47.852,-30.273,-21.973,-36.133,0.000
1738874094.650,-48.340,-34.668,-20.020,-28.320,0.000
1738874094.654,-36.621,-21.484,-22.461,-24.902,0.000
1738874094.658,-29.297,-6.348,-20.508,-31.738,0.000
1738874094.662,-29.785,-10.254,-19.043,-18.066,0.000
1738874094.666,-34.180,-17.578,-21.484,-19.531,0.000
1738874094.670,-35.645,-19.043,-23.926,-20.508,0.000
1738874094.674,-39.062,-20.996,-23.926,-21.484,0.000
1738874094.678,-39.062,-29.785,-20.996,-37.109,0.000
1738874094.682,-41.992,-36.621,-23.926,-35.645,0.000
1738874094.686,-45.410,-28.809,-20.996,-34.668,0.000
1738874094.690,-40.039,-28.809,-20.020,-32.227,0.000
1738874094.693,-41.504,-33.691,-23.926,-28.320,0.000
1738874094.697,-46.387,-29.785,-23.438,-24.902,0.000
1738874094.701,-43.945,-21.973,-22.461,-25.391,0.000
1738874094.705,-45.898,-23.926,-25.391,-23.926,0.000
1738874094.709,-36.621,-35.645,-28.809,-4.883,0.000
1738874094.713,-41.992,-33.203,-20.020,-24.902,0.000
1738874094.717,-38.086,-25.391,-16.602,-41.992,0.000
1738874094.721,-35.645,-24.414,-20.020,-23.438,0.000
1738874094.725,-41.504,-22.949,-19.531,-11.719,0.000
1738874094.729,-26.367,-20.508,-20.508,-19.043,0.000
1738874094.732,-30.273,-20.508,-19.043,-20.508,0.000
1738874094.736,-46.387,-22.949,-19.043,-25.391,0.000
1738874094.740,-41.504,-20.020,-23.438,-25.391,0.000
1738874094.744,-47.852,-14.648,-22.949,-9.766,0.000
1738874094.748,-60.059,-14.648,-18.066,-24.414,0.000
1738874094.752,-43.945,-20.508,-20.996,-24.902,0.000
1738874094.756,-35.645,-23.438,-26.855,-8.789,0.000
1738874094.760,-51.270,-23.438,-30.762,-22.461,0.000
1738874094.764,-48.340,-24.414,-26.855,-17.578,0.000
1738874094.768,-41.016,-19.531,-20.020,-26.367,0.000
1738874094.772,-41.016,-15.625,-20.508,-34.180,0.000
1738874094.775,-44.434,-12.207,-20.996,-23.438,0.000
1738874094.779,-39.062,-11.230,-18.555,-22.461,0.000
1738874094.783,-37.598,-20.020,-21.484,-23.926,0.000
1738874094.787,-35.156,-24.414,-17.578,-12.207,0.000
1738874094.791,-28.809,-17.578,-12.695,-11.719,0.000
1738874094.795,-20.020,-11.719,-20.996,-27.344,0.000
1738874094.799,-37.109,-20.020,-22.949,-20.508,0.000
1738874094.803,-49.805,-22.461,-23.438,-24.902,0.000
1738874094.807,-42.969,-19.531,-27.344,-33.691,0.000
1738874094.811,-37.598,-22.949,-22.949,-26.855,0.000
1738874094.815,-39.551,-27.832,-21.973,-28.320,0.000
1738874094.818,-36.133,-27.832,-26.855,-24.902,0.000
1738874094.822,-29.785,-27.832,-25.391,-23.438,0.000
1738874094.826,-26.367,-33.691,-20.996,-23.438,0.000
1738874094.830,-20.020,-26.855,-21.484,-20.020,0.000
1738874094.834,-44.434,-23.438,-23.438,-37.109,0.000
1738874094.838,-52.734,-27.344,-19.043,-51.758,0.000
1738874094.842,-31.738,-30.273,-22.949,-23.438,0.000
1738874094.846,-43.945,-30.273,-28.320,-23.438,0.000
1738874094.850,-55.176,-27.832,-29.297,-53.711,0.000
1738874094.854,-49.805,-19.531,-30.273,-43.945,0.000
1738874094.857,-49.316,-12.207,-24.414,-24.902,0.000
1738874094.861,-41.992,-15.625,-22.461,-37.598,0.000
1738874094.865,-43.457,-17.578,-29.297,-45.898,0.000
1738874094.869,-40.527,-20.020,-33.203,-50.781,0.000
1738874094.873,-44.922,-27.344,-31.250,-45.898,0.000
1738874094.877,-40.527,-31.738,-29.297,-38.574,0.000
1738874094.881,-45.898,-27.832,-30.762,-43.945,0.000
1738874094.885,-49.805,-29.297,-30.273,-34.180,0.000
1738874094.889,-43.945,-30.273,-31.250,-27.344,0.000
1738874094.893,-44.922,-32.227,-25.879,-10.742,0.000
1738874094.897,-39.062,-31.738,-21.973,-20.020,0.000
1738874094.900,-28.320,-29.297,-30.762,-37.598,0.000
1738874094.904,-16.113,-27.344,-30.762,-37.109,0.000
1738874094.908,-40.039,-25.391,-26.367,-20.508,0.000
1738874094.912,-45.410,-26.367,-26.855,-13.184,0.000
1738874094.916,-39.551,-30.762,-24.414,-27.832,0.000
1738874094.920,-54.199,-32.715,-31.738,-33.203,0.000
1738874094.924,-53.223,-20.508,-36.133,-31.738,0.000
1738874094.928,-48.828,-16.113,-32.227,-30.273,0.000
1738874094.932,-44.922,-23.926,-30.273,-27.832,0.000
1738874094.936,-28.809,-27.832,-28.320,-15.137,0.000
1738874094.940,-36.133,-21.484,-26.855,-21.484,0.000
1738874094.943,-42.480,-15.625,-22.949,-45.410,0.000
1738874094.947,-37.109,-22.949,-25.879,-40.039,0.000
1738874094.951,-33.691,-25.391,-31.250,-34.668,0.000
1738874094.955,-37.109,-15.625,-27.832,-35.156,0.000
1738874094.959,-38.574,-16.113,-24.414,-19.531,0.000
1738874094.963,-35.156,-22.949,-29.297,-22.461,0.000
1738874094.967,-24.414,-24.414,-31.250,-36.133,0.000
1738874094.971,-39.551,-18.066,-29.785,-31.250,0.000
1738874094.975,-44.922,-15.625,-27.344,-18.066,0.000
1738874094.979,-35.156,-19.043,-23.926,-22.461,0.000
1738874094.982,-44.922,-22.461,-24.902,-30.273,0.000
1738874094.986,-36.621,-22.949,-27.832,-28.809,0.000
1738874094.990,-24.414,-20.020,-26.855,-22.461,0.000
1738874094.994,-20.996,-25.879,-25.879,-13.672,0.000
1738874094.998,-22.949,-25.879,-25.391,-15.137,0.000
1738874095.002,-31.738,-22.949,-27.344,-26.855,0.000
1738874095.006,-42.480,-22.461,-29.785,-35.645,0.000
1738874095.010,-37.109,-26.855,-27.832,-30.762,0.000
1738874095.014,-29.785,-26.855,-29.785,-32.715,0.000
1738874095.018,-39.551,-19.531,-30.273,-35.156,0.000
1738874095.022,-34.668,-23.926,-27.344,-25.879,0.000
1738874095.025,-26.367,-26.855,-29.297,-25.879,0.000
1738874095.029,-47.852,-23.438,-27.832,-26.367,0.000
1738874095.033,-58.594,-19.043,-23.926,-27.832,0.000
1738874095.037,-39.062,-23.926,-24.902,-14.648,0.000
1738874095.041,-34.668,-25.879,-23.926,-18.555,0.000
1738874095.045,-53.223,-20.020,-23.926,-30.762,0.000
1738874095.049,-43.945,-22.949,-18.555,-22.461,0.000
1738874095.053,-13.184,-29.297,-17.090,-10.742,0.000
1738874095.057,-18.555,-24.902,-18.555,-0.977,0.000
1738874095.061,-47.363,-20.996,-21.484,-11.230,0.000
1738874095.064,-50.293,-25.391,-25.879,-24.414,0.000
1738874095.068,-32.715,-35.156,-21.973,-31.738,0.000
1738874095.072,-11.719,-33.691,-20.996,-28.809,0.000
1738874095.076,-26.855,-20.508,-21.973,-22.949,0.000
1738874095.080,-47.852,-20.508,-22.461,-27.344,0.000
1738874095.084,-38.574,-25.879,-20.020,-12.695,0.000
1738874095.088,-26.855,-25.879,-20.996,-9.766,0.000
1738874095.092,-30.762,-25.391,-24.414,-24.902,0.000
1738874095.096,-40.527,-25.391,-24.902,-28.320,0.000
1738874095.100,-20.996,-32.715,-23.926,-35.645,0.000
1738874095.104,-27.344,-34.180,-25.879,-31.250,0.000
1738874095.107,-52.734,-24.902,-28.320,-24.902,0.000
1738874095.111,-40.527,-30.273,-24.414,-27.832,0.000
1738874095.115,-26.367,-31.250,-21.484,-44.434,0.000
1738874095.119,-28.809,-25.391,-25.391,-42.969,0.000
1738874095.123,-23.438,-20.508,-23.438,-20.020,0.000
1738874095.127,-25.879,-15.137,-15.625,-14.160,0.000
1738874095.131,-37.109,-20.020,-16.602,-18.066,0.000
1738874095.135,-34.668,-21.973,-20.508,-20.996,0.000
1738874095.139,-45.898,-21.973,-21.484,-22.461,0.000
1738874095.143,-38.086,-24.902,-26.367,-26.855,0.000
1738874095.147,-25.391,-23.438,-29.297,-35.645,0.000
1738874095.150,-27.344,-20.020,-28.809,-27.832,0.000
1738874095.154,-25.391,-19.043,-26.855,-34.668,0.000
1738874095.158,-12.207,-23.438,-23.926,-30.273,0.000
1738874095.162,-23.926,-27.344,-25.391,-22.461,0.000
1738874095.166,-41.992,-19.043,-28.809,-33.203,0.000
1738874095.170,-33.691,-13.672,-24.414,-18.555,0.000
1738874095.174,-32.715,-19.043,-22.949,-21.484,0.000
1738874095.178,-28.809,-20.020,-26.855,-22.461,0.000
1738874095.182,-33.691,-14.648,-25.879,-22.461,0.000
1738874095.186,-41.504,-14.160,-24.414,-33.203,0.000
1738874095.189,-48.340,-22.461,-21.484,-13.184,0.000
1738874095.193,-36.133,-25.879,-20.020,6.348,0.000
1738874095.197,-43.945,-21.484,-23.926,-7.324,0.000
1738874095.201,-52.246,-15.625,-20.996,-16.602,0.000
1738874095.205,-28.320,-21.973,-16.113,-0.488,0.000
1738874095.209,-22.461,-18.066,-20.020,0.488,0.000
1738874095.213,-30.762,-7.324,-19.043,-21.973,0.000
1738874095.217,-13.184,-10.742,-16.113,-26.855,0.000
1738874095.221,-20.508,-14.160,-14.648,-13.672,0.000
1738874095.225,-43.457,-17.578,-10.742,-11.719,0.000
1738874095.229,-44.922,-21.484,-18.555,-13.184,0.000
1738874095.232,-50.781,-26.367,-26.367,-30.273,0.000
1738874095.236,-43.945,-23.926,-26.367,-32.715,0.000
1738874095.240,-41.992,-21.973,-24.902,-18.555,0.000
1738874095.244,-39.062,-24.414,-21.484,-19.043,0.000
1738874095.248,-23.926,-27.344,-18.066,-20.020,0.000
1738874095.252,-26.855,-28.809,-22.461,-22.461,0.000
1738874095.256,-45.410,-21.973,-30.273,-32.715,0.000
1738874095.260,-37.109,-18.066,-28.809,-27.344,0.000
1738874095.264,-31.738,-15.625,-20.996,-25.391,0.000
1738874095.268,-51.270,-18.555,-20.996,-31.250,0.000
1738874095.272,-57.129,-20.020,-27.344,-36.133,0.000
1738874095.275,-32.227,-16.113,-25.391,-20.020,0.000
1738874095.279,-38.574,-18.066,-22.949,-20.020,0.000
1738874095.283,-37.598,-20.508,-27.344,-42.480,0.000
1738874095.287,-22.949,-16.602,-30.273,-22.461,0.000
1738874095.291,-38.086,-16.602,-25.391,-3.906,0.000
1738874095.295,-37.598,-21.484,-22.949,-24.414,0.000
1738874095.299,-33.691,-15.625,-26.855,-30.273,0.000
1738874095.303,-23.926,-7.324,-26.367,-20.508,0.000
1738874095.307,-44.434,-11.230,-24.414,-6.836,0.000
1738874095.311,-55.176,-20.508,-23.926,-19.043,0.000
1738874095.315,-38.574,-21.973,-22.949,-34.180,0.000
1738874095.318,-33.691,-18.066,-20.996,-24.902,0.000
1738874095.322,-37.109,-21.973,-20.508,-16.602,0.000
1738874095.326,-35.645,-23.438,-25.391,-21.973,0.000
1738874095.330,-37.598,-18.066,-24.414,-27.832,0.000
1738874095.334,-45.898,-21.973,-23.438,-33.203,0.000
1738874095.338,-41.504,-24.902,-24.414,-17.090,0.000
1738874095.342,-35.645,-19.043,-22.461,-14.160,0.000
1738874095.346,-38.086,-13.672,-23.438,-35.645,0.000
1738874095.350,-32.227,-15.625,-26.367,-28.809,0.000
1738874095.354,-16.602,-19.043,-26.855,-3.418,0.000
1738874095.357,-21.484,-17.090,-11.719,1.953,0.000
1738874095.361,-38.574,-16.602,-7.812,-29.297,0.000
1738874095.365,-43.457,-21.484,-18.555,-31.250,0.000
1738874095.369,-27.832,-32.227,-20.020,-6.348,0.000
1738874095.373,-24.902,-28.320,-22.461,-7.324,0.000
1738874095.377,-30.273,-20.996,-20.020,-11.230,0.000
1738874095.381,-19.531,-25.391,-16.602,-8.789,0.000
1738874095.385,-12.207,-27.344,-19.043,-6.836,0.000
1738874095.389,-17.090,-24.902,-18.555,-5.371,0.000
1738874095.393,-34.668,-21.484,-18.066,-1.953,0.000
1738874095.397,-30.273,-21.973,-14.648,-4.395,0.000
1738874095.400,-26.855,-27.344,-13.184,-15.625,0.000
1738874095.404,-37.598,-23.926,-21.484,-23.438,0.000
1738874095.408,-41.504,-19.043,-22.949,-22.949,0.000
1738874095.412,-35.645,-23.438,-23.438,-21.973,0.000
1738874095.416,-23.926,-24.414,-26.367,-15.137,0.000
1738874095.420,-23.438,-12.207,-26.855,-11.230,0.000
1738874095.424,-38.574,-5.371,-22.461,-16.602,0.000
1738874095.428,-41.504,-15.625,-18.555,-6.348,0.000
1738874095.432,-42.480,-21.973,-20.996,-25.391,0.000
1738874095.436,-49.805,-12.695,-21.973,-51.758,0.000
1738874095.439,-39.062,-12.207,-20.020,-30.273,0.000
1738874095.443,-40.039,-23.926,-19.531,-19.531,0.000
1738874095.447,-41.992,-20.020,-22.949,-21.973,0.000
1738874095.451,-45.410,-14.160,-21.973,-25.391,0.000
1738874095.455,-42.480,-16.602,-19.043,-22.461,0.000
1738874095.459,-33.691,-16.113,-20.020,-19.531,0.000
1738874095.463,-45.898,-16.602,-19.043,-28.320,0.000
1738874095.467,-60.547,-18.555,-22.461,-34.668,0.000
1738874095.471,-49.805,-25.879,-25.391,-36.133,0.000
1738874095.475,-48.340,-29.785,-21.973,-36.133,0.000
1738874095.479,-48.828,-28.809,-20.996,-27.344,0.000
1738874095.482,-29.785,-29.785,-23.926,-24.414,0.000
1738874095.486,-35.156,-31.250,-25.879,-39.062,0.000
1738874095.490,-52.734,-32.715,-17.578,-22.949,0.000
1738874095.494,-57.129,-27.832,-16.602,-19.531,0.000
1738874095.498,-47.363,-23.926,-20.020,-30.762,0.000
1738874095.502,-31.250,-34.668,-16.113,-17.090,0.000
1738874095.506,-27.832,-36.621,-17.090,-4.883,0.000
1738874095.510,-32.715,-26.855,-21.484,-9.277,0.000
1738874095.514,-21.484,-27.344,-18.066,-22.949,0.000
1738874095.518,-24.414,-31.250,-15.137,-23.926,0.000
1738874095.522,-33.691,-35.156,-20.508,-15.137,0.000
1738874095.525,-27.832,-31.738,-26.855,-24.414,0.000
1738874095.529,-36.133,-25.391,-25.391,-19.531,0.000
1738874095.533,-43.945,-32.227,-22.949,-6.348,0.000
1738874095.537,-28.809,-33.203,-20.020,-11.719,0.000
1738874095.541,-24.414,-19.531,-19.531,-18.555,0.000
1738874095.545,-34.180,-22.461,-15.625,-17.578,0.000
1738874095.549,-40.527,-31.738,-16.113,-12.695,0.000
1738874095.553,-43.457,-30.762,-19.531,-17.090,0.000
1738874095.557,-47.852,-28.809,-18.555,-32.227,0.000
1738874095.561,-26.855,-32.715,-18.555,-28.320,0.000
1738874095.565,-22.461,-29.785,-19.043,-15.625,0.000
1738874095.568,-48.340,-32.227,-23.926,-29.785,0.000
1738874095.572,-45.410,-33.691,-28.320,-26.855,0.000
1738874095.576,-35.156,-27.832,-23.438,-25.879,0.000
1738874095.580,-34.668,-26.367,-21.484,-27.344,0.000
1738874095.584,-35.645,-24.414,-19.531,-16.113,0.000
1738874095.588,-29.297,-22.461,-13.672,-14.160,0.000
1738874095.592,-22.949,-19.043,-17.578,-14.648,0.000
1738874095.596,-29.297,-23.926,-19.531,-15.137,0.000
1738874095.600,-41.504,-23.438,-22.461,-24.902,0.000
1738874095.604,-43.457,-20.996,-24.414,-40.527,0.000
1738874095.607,-41.504,-26.855,-20.020,-38.086,0.000
1738874095.611,-43.457,-30.762,-24.414,-38.086,0.000
1738874095.615,-43.945,-29.785,-26.367,-40.527,0.000
1738874095.619,-44.434,-31.250,-25.391,-34.180,0.000
1738874095.623,-42.480,-32.715,-29.785,-36.621,0.000
1738874095.627,-39.551,-26.367,-28.809,-41.992,0.000
1738874095.631,-44.922,-21.973,-22.949,-35.645,0.000
1738874095.635,-43.457,-27.832,-24.414,-23.926,0.000
1738874095.639,-36.133,-31.250,-21.484,-24.902,0.000
1738874095.643,-44.922,-22.461,-16.113,-36.133,0.000
1738874095.647,-48.340,-15.137,-16.602,-29.297,0.000
1738874095.650,-41.992,-19.043,-16.602,-23.926,0.000
1738874095.654,-36.133,-27.344,-18.066,-32.715,0.000
1738874095.658,-41.504,-24.902,-27.832,-22.461,0.000
1738874095.662,-39.062,-20.508,-25.391,-14.648,0.000
1738874095.666,-30.273,-24.414,-20.020,-24.902,0.000
1738874095.670,-14.648,-29.785,-20.508,-20.996,0.000
1738874095.674,-41.016,-22.949,-21.484,-20.020,0.000
1738874095.678,-57.129,-18.066,-21.484,-17.578,0.000
1738874095.682,-35.645,-26.367,-22.949,-11.230,0.000
1738874095.686,-28.320,-21.973,-24.902,-30.273,0.000
1738874095.689,-45.898,-20.020,-21.973,-28.809,0.000
1738874095.693,-53.223,-30.762,-18.066,-20.996,0.000
1738874095.697,-40.039,-35.156,-17.090,-23.438,0.000
1738874095.701,-38.574,-33.691,-19.043,-27.344,0.000
1738874095.705,-38.086,-22.949,-15.137,-20.996,0.000
1738874095.709,-27.344,-18.066,-15.137,-12.695,0.000
1738874095.713,-23.438,-22.949,-16.113,-17.090,0.000
1738874095.717,-37.598,-20.996,-19.531,-13.184,0.000
1738874095.721,-40.039,-16.602,-27.344,-20.508,0.000
1738874095.725,-32.715,-12.207,-21.973,-22.461,0.000
1738874095.729,-37.598,-10.742,-19.043,-11.719,0.000
1738874095.732,-40.527,-13.672,-21.973,-6.836,0.000
1738874095.736,-43.945,-19.043,-23.438,-15.137,0.000
1738874095.740,-42.969,-24.902,-22.461,-26.855,0.000
1738874095.744,-44.922,-25.879,-20.020,-13.184,0.000
1738874095.748,-46.875,-24.414,-19.043,-11.230,0.000
1738874095.752,-44.434,-26.367,-20.508,-24.902,0.000
1738874095.756,-32.715,-21.973,-18.555,-11.230,0.000
1738874095.760,-31.738,-23.926,-17.578,-12.207,0.000
1738874095.764,-39.551,-30.762,-27.344,-32.227,0.000
1738874095.768,-39.551,-24.414,-34.668,-27.344,0.000
1738874095.771,-41.992,-26.367,-23.438,-30.762,0.000
1738874095.775,-55.664,-30.762,-21.484,-36.133,0.000
1738874095.779,-57.129,-22.949,-30.273,-32.227,0.000
1738874095.783,-41.992,-22.949,-28.320,-35.645,0.000
1738874095.787,-41.504,-28.320,-26.367,-24.414,0.000
1738874095.791,-51.270,-31.738,-26.855,-16.113,0.000
1738874095.795,-50.293,-29.785,-24.414,-21.484,0.000
1738874095.799,-52.246,-28.320,-21.484,-27.344,0.000
1738874095.803,-46.875,-27.344,-20.996,-34.668,0.000
1738874095.807,-53.223,-23.438,-22.461,-21.484,0.000
1738874095.811,-53.223,-19.531,-25.879,-20.996,0.000
1738874095.814,-48.340,-15.625,-27.344,-41.992,0.000
1738874095.818,-42.969,-26.855,-25.391,-27.344,0.000
1738874095.822,-31.738,-29.297,-23.926,-19.043,0.000
1738874095.826,-43.945,-17.090,-24.414,-26.367,0.000
1738874095.830,-57.129,-16.602,-23.438,-24.414,0.000
1738874095.834,-54.688,-19.043,-18.066,-22.949,0.000
1738874095.838,-52.246,-16.113,-12.207,-17.090,0.000
1738874095.842,-50.293,-13.184,-14.648,-11.719,0.000
1738874095.846,-46.875,-16.602,-14.160,-15.625,0.000
1738874095.850,-40.039,-20.020,-16.113,-30.273,0.000
1738874095.854,-47.363,-18.555,-21.484,-29.297,0.000
1738874095.857,-44.434,-17.578,-24.414,-28.809,0.000
1738874095.861,-15.137,-16.602,-20.508,-28.320,0.000
1738874095.865,-29.297,-17.090,-18.066,-19.531,0.000
1738874095.869,-45.898,-16.113,-15.625,-28.320,0.000
1738874095.873,-37.109,-7.812,-12.207,-25.391,0.000
1738874095.877,-32.715,-8.789,-13.672,-22.461,0.000
1738874095.881,-38.574,-13.672,-17.090,-26.367,0.000
1738874095.885,-38.574,-14.648,-19.043,-22.461,0.000
1738874095.889,-33.691,-15.625,-15.625,-14.648,0.000
1738874095.893,-38.086,-22.461,-13.184,-10.254,0.000
1738874095.896,-21.484,-28.809,-20.020,-25.879,0.000
1738874095.900,-25.879,-25.391,-25.879,-33.203,0.000
1738874095.904,-51.270,-20.996,-25.391,-20.996,0.000
1738874095.908,-41.992,-29.297,-22.461,-13.672,0.000
1738874095.912,-42.969,-30.762,-30.273,-14.160,0.000
1738874095.916,-58.105,-19.043,-36.621,-35.156,0.000
1738874095.920,-48.828,-17.578,-31.738,-26.367,0.000
1738874095.924,-28.320,-16.602,-28.320,-13.184,0.000
1738874095.928,-36.133,-13.184,-29.785,-20.508,0.000
1738874095.932,-44.434,-14.160,-30.273,-32.715,0.000
1738874095.936,-33.203,-20.020,-25.879,-27.344,0.000
1738874095.939,-42.480,-24.414,-21.973,-12.207,0.000
1738874095.943,-49.805,-26.367,-23.926,-25.879,0.000
1738874095.947,-46.875,-25.391,-26.367,-40.039,0.000
1738874095.951,-44.922,-22.949,-24.414,-36.621,0.000
1738874095.955,-41.992,-26.367,-22.949,-7.324,0.000
1738874095.959,-51.758,-16.113,-25.391,-16.113,0.000
1738874095.963,-62.500,-8.301,-28.809,-44.922,0.000
1738874095.967,-54.688,-18.066,-30.273,-42.969,0.000
1738874095.971,-49.805,-23.926,-31.250,-23.926,0.000
1738874095.975,-51.758,-17.578,-30.273,-13.672,0.000
1738874095.979,-47.363,-14.160,-26.367,-16.113,0.000
1738874095.982,-58.105,-14.160,-27.344,-24.902,0.000
1738874095.986,-66.406,-13.672,-29.297,-39.551,0.000
1738874095.990,-62.012,-23.926,-28.320,-44.434,0.000
1738874095.994,-59.082,-21.484,-24.902,-36.621,0.000
1738874095.998,-45.410,-12.207,-21.484,-11.719,0.000
1738874096.002,-38.086,-6.348,-25.879,-16.113,0.000
1738874096.006,-50.781,6.836,-21.973,-26.367,0.000
1738874096.010,-70.312,-2.441,-22.461,-40.527,0.000
1738874096.014,-80.566,-14.648,-25.879,-51.270,0.000
1738874096.018,-85.449,-13.672,-21.973,-61.035,0.000
1738874096.021,-86.426,-22.949,-17.578,-74.219,0.000
1738874096.025,-126.953,-25.391,-34.668,-100.586,0.000
1738874096.029,-164.062,-6.836,-19.043,-128.418,0.000
1738874096.033,-120.117,4.883,28.809,-105.469,0.000
1738874096.037,-143.555,-28.809,-6.348,-133.789,0.000
1738874096.041,-176.270,-46.387,-20.020,-161.133,0.000
1738874096.045,-203.125,-39.062,-4.883,-174.316,0.000
1738874096.049,-243.164,-26.855,2.930,-215.332,0.000
1738874096.053,-252.930,-16.113,24.902,-237.305,0.000
1738874096.057,-261.719,-26.367,27.832,-250.488,0.000
1738874096.061,-253.906,-19.531,31.250,-241.211,0.000
1738874096.064,-250.000,-5.371,38.086,-242.676,0.000
1738874096.068,-266.602,-11.719,38.574,-253.906,0.000
1738874096.072,-259.277,-15.137,55.176,-224.121,0.000
1738874096.076,-238.281,-0.488,70.801,-212.891,0.000
1738874096.080,-229.004,11.230,80.566,-217.285,0.000
1738874096.084,-213.867,4.395,84.961,-194.336,0.000
1738874096.088,-179.688,-2.930,88.867,-161.133,0.000
1738874096.092,-156.250,5.859,93.262,-152.832,0.000
1738874096.096,-173.340,16.602,92.285,-154.297,0.000
1738874096.100,-172.363,14.648,95.215,-148.926,0.000
1738874096.103,-139.648,16.113,94.238,-132.324,0.000
1738874096.107,-136.719,21.973,83.496,-104.492,0.000
1738874096.111,-142.090,25.879,77.148,-99.121,0.000
1738874096.115,-114.258,22.461,76.172,-101.074,0.000
1738874096.119,-86.914,16.602,65.918,-74.707,0.000
1738874096.123,-73.242,16.602,62.012,-50.781,0.000
1738874096.127,-63.965,17.090,64.453,-46.387,0.000
1738874096.131,-57.129,14.648,61.523,-27.344,0.000
1738874096.135,-30.273,7.324,53.711,-0.488,0.000
1738874096.139,-14.648,12.695,45.410,-0.488,0.000
1738874096.143,-27.832,22.461,40.527,-6.348,0.000
1738874096.146,-15.137,13.184,39.062,3.418,0.000
1738874096.150,-8.301,9.766,32.227,-1.465,0.000
1738874096.154,-7.812,16.602,23.438,16.113,0.000
1738874096.158,13.184,21.484,20.996,41.504,0.000
1738874096.162,15.625,20.996,17.578,38.086,0.000
1738874096.166,22.461,20.020,12.695,16.113,0.000
1738874096.170,30.762,22.949,8.301,32.227,0.000
1738874096.174,27.832,24.414,8.301,52.246,0.000
1738874096.178,47.363,18.066,9.277,63.965,0.000
1738874096.182,49.316,16.113,3.906,67.383,0.000
1738874096.185,44.922,22.949,2.930,59.570,0.000
1738874096.189,50.293,30.273,10.254,70.312,0.000
1738874096.193,45.410,23.438,8.789,80.566,0.000
1738874096.197,40.039,18.066,2.930,67.871,0.000
1738874096.201,33.203,23.926,1.953,49.805,0.000
1738874096.205,39.062,25.391,1.465,65.430,0.000
1738874096.209,45.410,20.508,0.000,83.008,0.000
1738874096.213,37.109,15.625,-4.883,71.777,0.000
1738874096.217,33.691,14.648,-6.836,59.570,0.000
1738874096.221,39.062,12.207,-2.930,55.664,0.000
1738874096.225,31.250,15.625,-2.441,50.293,0.000
1738874096.228,24.414,12.695,-11.719,43.457,0.000
1738874096.232,25.879,13.184,-16.113,41.016,0.000
1738874096.236,30.273,14.648,-11.719,45.410,0.000
1738874096.240,28.809,11.230,-7.812,54.199,0.000
1738874096.244,27.344,17.090,-7.324,46.875,0.000
1738874096.248,28.809,17.578,-6.836,44.922,0.000
1738874096.252,25.391,9.766,-6.348,58.594,0.000
1738874096.256,34.668,8.301,-5.859,59.570,0.000
1738874096.260,25.391,17.090,-5.371,58.105,0.000
1738874096.264,14.648,18.555,-1.465,57.617,0.000
1738874096.268,17.578,8.789,1.953,50.781,0.000
1738874096.271,8.301,0.977,-3.906,58.594,0.000
1738874096.275,6.836,-3.418,-6.836,50.293,0.000
1738874096.279,12.207,-5.371,-10.742,27.344,0.000
1738874096.283,0.977,-5.859,-17.578,19.531,0.000
1738874096.287,11.719,-5.371,-17.578,7.324,0.000
1738874096.291,16.602,-1.953,-13.672,19.531,0.000
1738874096.295,-20.508,-4.883,-11.230,16.113,0.000
1738874096.299,-14.648,-15.625,-16.602,12.207,0.000
1738874096.303,-7.324,-14.648,-19.043,20.996,0.000
1738874096.307,-14.160,-2.930,-16.113,11.719,0.000
1738874096.310,-12.207,-4.883,-18.555,10.742,0.000
1738874096.314,-18.555,-4.883,-25.879,10.742,0.000
1738874096.318,-13.184,-3.418,-24.414,10.254,0.000
1738874096.322,-18.555,-5.859,-20.020,-5.371,0.000
1738874096.326,-30.273,-8.301,-15.625,-12.695,0.000
1738874096.330,-26.855,-10.742,-16.602,3.418,0.000
1738874096.334,-29.297,-8.301,-20.508,-4.395,0.000
1738874096.338,-20.996,-9.766,-16.602,-6.836,0.000
1738874096.342,-22.461,-7.324,-16.602,-1.953,0.000
1738874096.346,-28.320,-5.859,-20.508,-4.883,0.000
1738874096.350,-28.809,-10.254,-20.020,-5.371,0.000
1738874096.353,-33.691,-10.254,-18.066,-7.324,0.000
1738874096.357,-29.785,-10.742,-19.043,-11.230,0.000
1738874096.361,-18.555,-12.695,-21.973,-2.930,0.000
1738874096.365,-14.160,-16.113,-16.602,-8.789,0.000
1738874096.369,-45.898,-21.973,-19.531,-21.973,0.000
1738874096.373,-55.176,-30.762,-29.297,-25.391,0.000
1738874096.377,-38.086,-31.738,-31.250,-24.414,0.000
1738874096.381,-39.062,-22.461,-33.203,-27.344,0.000
1738874096.385,-43.457,-20.020,-35.156,-31.250,0.000
1738874096.389,-42.969,-18.066,-29.785,-30.762,0.000
1738874096.393,-35.156,-15.137,-22.461,-25.879,0.000
1738874096.396,-32.227,-16.113,-21.484,-15.625,0.000
1738874096.400,-39.062,-20.020,-25.391,-26.855,0.000
1738874096.404,-36.621,-15.137,-23.438,-30.762,0.000
1738874096.408,-32.715,-8.789,-16.113,-14.160,0.000
1738874096.412,-25.879,-13.184,-16.602,-3.418,0.000
1738874096.416,-22.949,-16.602,-20.020,-11.230,0.000
1738874096.420,-29.297,-20.508,-20.508,-11.719,0.000
1738874096.424,-31.250,-16.602,-17.578,-1.953,0.000
1738874096.428,-33.691,-8.789,-15.625,-9.277,0.000
1738874096.432,-26.855,-11.719,-16.602,-16.602,0.000
1738874096.435,-30.273,-16.602,-21.484,-22.949,0.000
1738874096.439,-41.504,-21.484,-26.367,-22.949,0.000
1738874096.443,-44.434,-20.508,-21.973,-13.184,0.000
1738874096.447,-29.785,-23.438,-22.949,-12.695,0.000
1738874096.451,-28.320,-20.508,-27.832,-29.785,0.000
1738874096.455,-32.227,-14.648,-22.949,-30.762,0.000
1738874096.459,-35.156,-21.484,-20.508,-18.555,0.000
1738874096.463,-30.762,-23.438,-19.531,-10.742,0.000
1738874096.467,-30.273,-22.949,-20.020,-6.348,0.000
1738874096.471,-38.086,-17.578,-23.926,-12.695,0.000
1738874096.475,-33.203,-16.113,-24.414,-19.043,0.000
1738874096.478,-38.086,-21.484,-20.020,-25.391,0.000
1738874096.482,-49.316,-21.484,-21.484,-13.184,0.000
1738874096.486,-41.016,-15.137,-25.879,-13.184,0.000
1738874096.490,-34.668,-13.184,-23.926,-41.992,0.000
1738874096.494,-31.250,-16.602,-30.762,-32.715,0.000
1738874096.498,-33.203,-14.160,-29.785,-26.855,0.000
1738874096.502,-38.086,-13.184,-20.996,-23.926,0.000
1738874096.506,-36.621,-16.113,-22.461,-12.207,0.000
1738874096.510,-27.344,-11.719,-22.949,-2.441,0.000
1738874096.514,-17.578,-5.859,-25.391,-16.113,0.000
1738874096.517,-25.391,-5.859,-22.461,-32.715,0.000
1738874096.521,-22.949,-9.277,-20.020,-23.438,0.000
1738874096.525,-18.066,-12.695,-15.137,-29.785,0.000
1738874096.529,-46.387,-14.160,-10.742,-26.855,0.000
1738874096.533,-41.504,-11.719,-16.113,-15.625,0.000
1738874096.537,-30.762,-17.578,-16.602,-19.043,0.000
1738874096.541,-41.016,-22.949,-14.648,-30.273,0.000
1738874096.545,-37.598,-17.090,-20.508,-28.809,0.000
1738874096.549,-37.109,-15.625,-23.926,-30.273,0.000
1738874096.553,-35.645,-22.949,-19.531,-21.973,0.000
1738874096.557,-25.391,-21.484,-16.113,-11.230,0.000
1738874096.560,-21.973,-16.602,-14.648,-10.742,0.000
1738874096.564,-46.875,-21.973,-14.648,-20.020,0.000
1738874096.568,-51.270,-23.926,-11.719,-32.715,0.000
1738874096.572,-28.809,-21.973,-10.254,-16.113,0.000
1738874096.576,-20.020,-19.043,-10.254,9.766,0.000
1738874096.580,-32.715,-13.672,-5.859,-4.883,0.000
1738874096.584,-25.391,-16.113,-10.254,-23.926,0.000
1738874096.588,-20.996,-17.090,-10.742,-7.324,0.000
1738874096.592,-34.180,-14.160,-7.324,-1.465,0.000
1738874096.596,-35.156,-17.090,-12.695,-1.953,0.000
1738874096.600,-27.344,-19.531,-11.230,0.977,0.000
1738874096.603,-30.273,-20.020,-14.648,-16.602,0.000
1738874096.607,-44.434,-18.555,-21.484,-28.320,0.000
1738874096.611,-35.156,-18.066,-18.066,-1.465,0.000
1738874096.615,-16.602,-21.973,-13.184,0.488,0.000
1738874096.619,-45.898,-21.973,-13.184,-27.832,0.000
1738874096.623,-53.711,-21.484,-11.719,-9.766,0.000
1738874096.627,-25.879,-25.391,-10.254,1.953,0.000
1738874096.631,-45.410,-26.855,-12.207,-19.043,0.000
1738874096.635,-62.500,-22.949,-13.672,-33.691,0.000
1738874096.639,-41.992,-16.113,-16.113,-25.391,0.000
1738874096.642,-42.480,-16.113,-18.555,-4.395,0.000
1738874096.646,-40.527,-29.297,-21.484,-8.301,0.000
1738874096.650,-47.852,-29.785,-24.902,-44.434,0.000
1738874096.654,-65.430,-21.484,-20.996,-38.086,0.000
1738874096.658,-47.852,-23.438,-18.066,0.488,0.000
1738874096.662,-41.504,-18.555,-16.113,-1.953,0.000
1738874096.666,-62.500,-15.137,-7.812,-28.809,0.000
1738874096.670,-56.641,-18.066,-11.719,-27.344,0.000
1738874096.674,-52.734,-13.184,-19.531,-19.531,0.000
1738874096.678,-53.223,-12.695,-16.602,-26.367,0.000
1738874096.682,-57.129,-13.184,-20.020,-41.504,0.000
1738874096.685,-37.109,-12.695,-24.902,-38.574,0.000
1738874096.689,-22.461,-16.602,-24.902,-20.020,0.000
1738874096.693,-29.297,-20.996,-20.996,-11.719,0.000
1738874096.697,-40.039,-16.602,-24.414,-17.090,0.000
1738874096.701,-42.969,-19.043,-26.367,-33.203,0.000
1738874096.705,-45.898,-20.508,-20.996,-26.855,0.000
1738874096.709,-58.105,-16.113,-22.949,-11.719,0.000
1738874096.713,-46.875,-19.531,-23.926,-17.578,0.000
1738874096.717,-39.062,-23.926,-29.785,-39.062,0.000
1738874096.721,-45.898,-20.996,-33.203,-40.039,0.000
1738874096.725,-43.945,-16.113,-29.297,-22.949,0.000
1738874096.728,-36.621,-14.160,-31.738,-34.668,0.000
1738874096.732,-39.551,-17.578,-33.203,-32.715,0.000
1738874096.736,-28.320,-13.672,-31.250,-27.832,0.000
1738874096.740,-31.250,-10.254,-30.762,-32.227,0.000
1738874096.744,-31.250,-9.277,-24.414,-11.719,0.000
1738874096.748,-13.672,-13.184,-23.438,-11.230,0.000
1738874096.752,-17.090,-17.578,-26.855,-21.484,0.000
1738874096.756,-40.527,-10.742,-27.832,-12.207,0.000
1738874096.760,-38.086,-9.277,-21.973,-4.883,0.000
1738874096.764,-24.902,-9.766,-19.043,-17.578,0.000
1738874096.767,-30.273,-10.742,-22.461,-31.250,0.000
1738874096.771,-27.344,-15.625,-29.297,-28.320,0.000
1738874096.775,-22.949,-15.625,-32.227,-17.578,0.000
1738874096.779,-34.668,-12.695,-30.273,-12.695,0.000
1738874096.783,-37.598,-20.996,-30.762,-21.973,0.000
1738874096.787,-37.109,-21.484,-30.273,-22.461,0.000
1738874096.791,-25.879,-13.184,-24.414,-18.555,0.000
1738874096.795,-15.137,-20.020,-23.438,-0.977,0.000
1738874096.799,-39.062,-23.438,-23.438,-9.277,0.000
1738874096.803,-61.035,-21.973,-25.879,-64.453,0.000
1738874096.807,-52.246,-21.973,-35.645,-47.852,0.000
1738874096.810,-29.785,-20.020,-33.203,-1.465,0.000
1738874096.814,-31.738,-18.555,-20.508,-10.254,0.000
1738874096.818,-59.082,-13.672,-19.531,-27.344,0.000
1738874096.822,-49.805,-13.184,-20.996,-17.578,0.000
1738874096.826,-34.180,-17.090,-21.973,-11.230,0.000
1738874096.830,-38.574,-19.043,-26.367,-22.461,0.000
1738874096.834,-45.898,-20.996,-21.484,-29.785,0.000
1738874096.838,-44.434,-25.391,-18.555,-20.996,0.000
1738874096.842,-38.574,-27.832,-22.949,-19.531,0.000
1738874096.846,-58.105,-26.367,-25.391,-27.832,0.000
1738874096.849,-48.828,-26.855,-23.926,-22.461,0.000
1738874096.853,-36.133,-25.391,-19.531,-17.090,0.000
1738874096.857,-45.410,-24.902,-22.461,-21.484,0.000
1738874096.861,-45.898,-23.438,-27.344,-32.715,0.000
1738874096.865,-45.410,-25.879,-27.344,-33.691,0.000
1738874096.869,-41.992,-25.879,-22.461,-18.066,0.000
1738874096.873,-35.645,-20.996,-20.996,-7.812,0.000
1738874096.877,-32.715,-19.531,-23.438,-7.812,0.000
1738874096.881,-41.504,-22.461,-22.949,-15.137,0.000
1738874096.885,-40.527,-33.691,-21.484,-16.602,0.000
1738874096.889,-39.551,-34.668,-20.508,-8.301,0.000
1738874096.892,-37.598,-20.020,-22.949,-21.973,0.000
1738874096.896,-39.551,-23.438,-25.391,-29.297,0.000
1738874096.900,-41.992,-28.320,-26.367,-27.344,0.000
1738874096.904,-41.016,-20.020,-24.414,-27.832,0.000
1738874096.908,-48.828,-17.090,-22.461,-11.230,0.000
1738874096.912,-41.504,-23.438,-25.391,-23.438,0.000
1738874096.916,-49.805,-27.344,-22.949,-36.621,0.000
1738874096.920,-58.594,-23.438,-24.414,-26.367,0.000
1738874096.924,-40.527,-20.996,-30.273,-24.902,0.000
1738874096.928,-34.668,-27.832,-33.203,-10.742,0.000
1738874096.931,-41.504,-32.715,-32.227,-6.836,0.000
1738874096.935,-42.969,-25.879,-29.297,-24.414,0.000
1738874096.939,-41.992,-19.043,-28.809,-36.133,0.000
1738874096.943,-42.480,-17.090,-30.762,-42.969,0.000
1738874096.947,-44.922,-17.578,-32.227,-36.621,0.000
1738874096.951,-45.898,-18.066,-32.227,-30.762,0.000
1738874096.955,-36.621,-20.020,-27.832,-27.832,0.000
1738874096.959,-31.250,-17.578,-21.973,-15.137,0.000
1738874096.963,-40.039,-16.602,-20.020,-14.648,0.000
1738874096.967,-47.363,-20.996,-21.973,-20.508,0.000
1738874096.971,-36.621,-20.996,-18.555,-16.602,0.000
1738874096.974,-29.785,-23.438,-16.602,-18.555,0.000
1738874096.978,-25.391,-23.438,-21.484,-15.625,0.000
1738874096.982,-27.832,-23.438,-24.902,-25.391,0.000
1738874096.986,-37.598,-22.461,-29.785,-32.227,0.000
1738874096.990,-46.387,-22.949,-25.879,-10.742,0.000
1738874096.994,-50.781,-22.461,-23.438,-20.996,0.000
1738874096.998,-40.039,-20.020,-29.297,-34.668,0.000
1738874097.002,-35.156,-22.461,-30.762,-28.809,0.000
1738874097.006,-31.738,-18.066,-32.715,-23.926,0.000
1738874097.010,-44.922,-10.742,-28.320,-26.367,0.000
1738874097.014,-53.711,-9.766,-22.949,-29.297,0.000
1738874097.017,-36.133,-12.695,-18.555,-21.484,0.000
1738874097.021,-37.598,-14.648,-16.113,-17.578,0.000
1738874097.025,-26.367,-11.230,-23.438,-16.602,0.000
1738874097.029,-24.414,-4.395,-22.461,-14.160,0.000
1738874097.033,-44.922,-13.672,-16.602,-26.855,0.000
1738874097.037,-35.645,-17.090,-20.508,-26.367,0.000
1738874097.041,-30.762,-5.859,-21.484,-20.996,0.000
1738874097.045,-29.785,-5.371,-18.066,-17.578,0.000
1738874097.049,-28.320,-11.719,-18.066,-24.902,0.000
1738874097.053,-40.039,-17.578,-19.531,-20.508,0.000
1738874097.056,-45.410,-17.578,-23.926,-4.883,0.000
1738874097.060,-37.598,-15.137,-22.461,-9.277,0.000
1738874097.064,-36.621,-15.625,-25.391,-27.832,0.000
1738874097.068,-36.133,-16.113,-30.762,-18.555,0.000
1738874097.072,-34.180,-11.719,-30.273,-8.301,0.000
1738874097.076,-34.180,-10.254,-33.691,-21.484,0.000
1738874097.080,-39.062,-17.090,-31.738,-15.625,0.000
1738874097.084,-35.156,-15.137,-28.809,-22.461,0.000
1738874097.088,-32.715,-15.137,-28.809,-36.133,0.000
1738874097.092,-37.109,-22.461,-26.367,-20.020,0.000
1738874097.096,-44.434,-21.484,-22.461,-19.531,0.000
1738874097.099,-49.316,-14.648,-26.855,-33.691,0.000
1738874097.103,-41.504,-14.160,-28.809,-35.156,0.000
1738874097.107,-39.551,-17.578,-26.367,-24.414,0.000
1738874097.111,-36.133,-22.461,-24.902,-20.508,0.000
1738874097.115,-37.109,-20.508,-27.832,-36.133,0.000
1738874097.119,-43.945,-14.648,-32.227,-31.738,0.000
1738874097.123,-46.387,-16.602,-29.785,-23.926,0.000
1738874097.127,-48.340,-14.160,-24.414,-23.926,0.000
1738874097.131,-53.223,-7.324,-21.973,-25.391,0.000
1738874097.135,-42.480,-10.742,-19.531,-30.273,0.000
1738874097.138,-26.855,-13.672,-16.602,-22.461,0.000
1738874097.142,-30.273,-12.695,-20.508,-21.484,0.000
1738874097.146,-36.621,-6.348,-23.438,-20.020,0.000
1738874097.150,-40.527,-6.348,-21.484,-27.344,0.000
1738874097.154,-40.039,-12.207,-27.832,-32.715,0.000
1738874097.158,-31.738,-10.742,-32.715,-23.438,0.000
1738874097.162,-34.668,-9.766,-28.809,-23.438,0.000
1738874097.166,-45.410,-14.160,-24.414,-25.391,0.000
1738874097.170,-38.086,-19.531,-23.926,-13.672,0.000
1738874097.174,-47.852,-17.090,-22.461,-22.949,0.000
1738874097.178,-49.805,-12.695,-25.391,-45.410,0.000
1738874097.181,-41.016,-20.508,-29.785,-41.504,0.000
1738874097.185,-45.410,-29.297,-28.809,-47.852,0.000
1738874097.189,-35.645,-26.855,-26.367,-27.344,0.000
1738874097.193,-25.879,-18.066,-26.367,1.465,0.000
1738874097.197,-54.688,-20.020,-24.414,-31.738,0.000
1738874097.201,-65.430,-23.926,-20.508,-42.480,0.000
1738874097.205,-45.898,-14.648,-17.578,-31.250,0.000
1738874097.209,-56.641,-13.184,-19.043,-52.246,0.000
1738874097.213,-54.688,-22.461,-17.578,-32.227,0.000
1738874097.217,-54.199,-21.973,-18.066,-44.922,0.000
1738874097.221,-49.316,-12.207,-23.926,-71.289,0.000
1738874097.224,-47.852,-11.230,-26.367,-43.945,0.000
1738874097.228,-51.758,-20.508,-24.414,-35.156,0.000
1738874097.232,-45.410,-24.414,-25.879,-40.039,0.000
1738874097.236,-46.875,-17.578,-27.832,-31.250,0.000
1738874097.240,-44.922,-16.602,-21.973,-26.367,0.000
1738874097.244,-46.387,-17.578,-18.066,-18.066,0.000
1738874097.248,-52.246,-15.137,-22.949,-24.902,0.000
1738874097.252,-40.527,-16.602,-26.367,-37.598,0.000
1738874097.256,-35.156,-17.578,-25.391,-16.602,0.000
1738874097.260,-25.879,-18.066,-27.344,-13.184,0.000
1738874097.263,-27.832,-20.996,-28.809,-22.461,0.000
1738874097.267,-37.598,-19.043,-25.391,-23.926,0.000
1738874097.271,-41.016,-19.531,-24.902,-25.391,0.000
1738874097.275,-35.156,-29.297,-27.344,-18.066,0.000
1738874097.279,-28.320,-24.902,-26.855,-27.344,0.000
1738874097.283,-29.785,-20.508,-30.762,-38.574,0.000
1738874097.287,-28.809,-20.996,-30.273,-34.180,0.000
1738874097.291,-26.855,-19.043,-29.785,-23.926,0.000
1738874097.295,-31.738,-16.602,-31.250,-19.043,0.000
1738874097.299,-42.969,-16.602,-31.250,-23.926,0.000
1738874097.303,-44.922,-27.832,-30.762,-27.832,0.000
1738874097.306,-42.969,-32.227,-29.785,-22.949,0.000
1738874097.310,-41.992,-23.926,-30.762,-21.484,0.000
1738874097.314,-47.363,-18.066,-30.273,-36.133,0.000
1738874097.318,-34.668,-21.484,-28.320,-40.039,0.000
1738874097.322,-28.809,-20.996,-27.344,-28.809,0.000
1738874097.326,-38.086,-19.043,-26.855,-27.832,0.000
1738874097.330,-41.504,-22.461,-24.902,-22.461,0.000
1738874097.334,-41.016,-22.949,-22.461,-12.695,0.000
1738874097.338,-25.391,-23.926,-23.438,-23.926,0.000
1738874097.342,-29.785,-20.020,-21.973,-14.648,0.000
1738874097.345,-37.109,-18.066,-20.996,-8.789,0.000
1738874097.349,-25.879,-27.832,-20.020,-26.367,0.000
1738874097.353,-20.508,-29.297,-20.020,-17.090,0.000
1738874097.357,-38.574,-19.531,-17.090,-12.207,0.000
1738874097.361,-33.691,-23.438,-14.648,-22.949,0.000
1738874097.365,-27.832,-30.762,-24.414,-23.438,0.000
1738874097.369,-41.016,-28.809,-26.855,-23.438,0.000
1738874097.373,-51.270,-26.855,-25.391,-40.039,0.000
1738874097.377,-40.527,-28.809,-29.297,-34.180,0.000
1738874097.381,-35.645,-28.809,-26.367,-26.367,0.000
1738874097.385,-45.898,-24.414,-21.973,-38.574,0.000
1738874097.388,-55.664,-24.414,-18.555,-39.062,0.000
1738874097.392,-62.500,-28.320,-18.066,-42.480,0.000
1738874097.396,-49.805,-29.297,-20.508,-35.645,0.000
1738874097.400,-28.320,-24.902,-17.090,-27.344,0.000
1738874097.404,-26.367,-19.043,-13.184,-21.484,0.000
1738874097.408,-17.090,-16.602,-10.742,0.000,0.000
1738874097.412,-23.438,-16.113,-7.812,-6.836,0.000
1738874097.416,-36.621,-12.207,-9.766,-25.391,0.000
1738874097.420,-22.461,-8.789,-10.254,-15.137,0.000
1738874097.424,-22.949,-10.254,-10.742,-10.742,0.000
1738874097.428,-29.785,-12.207,-13.672,-21.484,0.000
1738874097.431,-39.062,-10.742,-15.137,-24.414,0.000
1738874097.435,-24.414,-12.695,-12.695,-15.625,0.000
1738874097.439,-25.879,-15.137,-12.695,-5.859,0.000
1738874097.443,-31.738,-16.113,-10.742,-4.883,0.000
1738874097.447,-12.695,-12.207,-9.766,-9.277,0.000
1738874097.451,-15.625,-11.230,-14.160,-9.766,0.000
1738874097.455,-10.742,-11.719,-8.301,4.395,0.000
1738874097.459,-24.414,-5.859,-6.348,-4.883,0.000
1738874097.463,-25.391,-9.277,-8.301,-17.578,0.000
1738874097.467,-16.602,-20.020,-5.859,-15.625,0.000
1738874097.470,-15.625,-20.508,-9.277,-21.484,0.000
1738874097.474,-13.184,-15.625,-12.207,-12.207,0.000
1738874097.478,-24.902,-12.695,-15.137,-22.949,0.000
1738874097.482,-29.785,-14.648,-18.066,-20.020,0.000
1738874097.486,-32.715,-19.043,-17.090,-16.113,0.000
1738874097.490,-43.457,-16.602,-18.066,-20.996,0.000
1738874097.494,-39.062,-15.137,-16.602,-18.555,0.000
1738874097.498,-37.598,-22.461,-14.160,-12.695,0.000
1738874097.502,-36.621,-25.879,-20.996,-13.184,0.000
1738874097.506,-30.762,-14.648,-22.461,-28.320,0.000
1738874097.510,-27.344,-17.090,-18.066,-26.855,0.000
1738874097.513,-21.973,-25.879,-20.996,-10.254,0.000
1738874097.517,-37.598,-22.949,-23.438,-26.367,0.000
1738874097.521,-36.621,-18.066,-20.020,-35.645,0.000
1738874097.525,-25.879,-19.043,-11.719,-20.020,0.000
1738874097.529,-27.344,-21.484,-14.160,-19.531,0.000
1738874097.533,-35.645,-20.996,-17.578,-12.695,0.000
1738874097.537,-35.645,-21.973,-11.719,-20.508,0.000
1738874097.541,-26.855,-20.996,-19.043,-23.438,0.000
1738874097.545,-31.250,-17.578,-21.973,-18.066,0.000
1738874097.549,-27.832,-10.742,-18.066,-26.855,0.000
1738874097.552,-32.715,-8.789,-19.531,-23.926,0.000
1738874097.556,-34.180,-17.090,-18.066,-13.672,0.000
1738874097.560,-22.949,-25.879,-21.484,-6.836,0.000
1738874097.564,-32.715,-20.996,-23.926,-25.391,0.000
1738874097.568,-55.664,-21.973,-23.926,-57.617,0.000
1738874097.572,-45.410,-24.902,-17.090,-32.227,0.000
1738874097.576,-24.414,-17.090,-15.625,-20.508,0.000
1738874097.580,-38.086,-15.625,-19.043,-28.809,0.000
1738874097.584,-40.039,-22.949,-17.090,-22.461,0.000
1738874097.588,-43.457,-24.902,-19.043,-33.691,0.000
1738874097.592,-55.176,-22.461,-18.555,-33.203,0.000
1738874097.595,-41.992,-16.113,-18.555,-23.926,0.000
1738874097.599,-34.180,-13.184,-23.438,-34.668,0.000
1738874097.603,-26.367,-22.949,-26.855,-31.250,0.000
1738874097.607,-27.344,-24.414,-22.949,-17.578,0.000
1738874097.611,-54.199,-17.578,-20.996,-27.344,0.000
1738874097.615,-51.758,-17.090,-20.020,-32.715,0.000
1738874097.619,-27.832,-17.090,-18.555,-29.297,0.000
1738874097.623,-26.367,-20.020,-21.484,-21.484,0.000
1738874097.627,-17.578,-22.949,-21.484,-17.090,0.000
1738874097.631,-16.602,-13.184,-20.508,-9.277,0.000
1738874097.635,-30.273,-16.113,-15.625,-2.441,0.000
1738874097.638,-41.504,-20.996,-10.254,-26.855,0.000
1738874097.642,-42.480,-12.207,-15.625,-23.926,0.000
1738874097.646,-31.738,-11.230,-20.020,-7.324,0.000
1738874097.650,-43.945,-20.020,-23.438,-27.832,0.000
1738874097.654,-41.016,-26.367,-26.855,-25.391,0.000
1738874097.658,-45.410,-21.484,-26.367,-6.836,0.000
1738874097.662,-44.434,-26.367,-22.949,-15.625,0.000
1738874097.666,-34.180,-31.738,-20.020,-17.090,0.000
1738874097.670,-46.387,-25.391,-23.438,-30.273,0.000
1738874097.674,-46.387,-24.902,-22.949,-28.809,0.000
1738874097.677,-29.785,-26.367,-16.602,-1.465,0.000
1738874097.681,-43.457,-31.738,-19.531,-18.066,0.000
1738874097.685,-54.688,-27.832,-25.391,-44.434,0.000
1738874097.689,-45.898,-22.461,-26.367,-21.484,0.000
1738874097.693,-36.621,-26.855,-22.949,-11.719,0.000
1738874097.697,-23.926,-25.391,-18.066,-23.926,0.000
1738874097.701,-30.273,-20.996,-20.996,-23.438,0.000
1738874097.705,-41.992,-24.414,-20.996,-22.949,0.000
1738874097.709,-33.691,-28.809,-21.484,-3.418,0.000
1738874097.713,-40.527,-29.785,-27.344,-15.137,0.000
1738874097.717,-59.082,-34.668,-28.320,-54.688,0.000
1738874097.720,-55.664,-39.062,-29.785,-38.574,0.000
1738874097.724,-49.316,-41.992,-30.762,-20.996,0.000
1738874097.728,-41.992,-42.969,-27.832,-16.113,0.000
1738874097.732,-24.902,-35.645,-30.762,-21.973,0.000
1738874097.736,-34.668,-32.715,-34.668,-36.133,0.000
1738874097.740,-45.898,-40.527,-27.344,-18.555,0.000
1738874097.744,-31.738,-41.504,-25.879,-15.137,0.000
1738874097.748,-28.809,-31.738,-26.855,-26.367,0.000
1738874097.752,-40.039,-30.273,-23.438,-28.809,0.000
1738874097.756,-45.410,-33.203,-29.785,-27.832,0.000
1738874097.760,-33.203,-26.367,-32.227,-25.879,0.000
1738874097.763,-21.973,-23.438,-25.391,-17.090,0.000
1738874097.767,-29.785,-29.297,-26.855,-15.625,0.000
1738874097.771,-30.762,-28.320,-24.414,-5.859,0.000
1738874097.775,-31.738,-22.949,-20.508,-0.488,0.000
1738874097.779,-34.668,-24.902,-20.508,-8.301,0.000
1738874097.783,-22.949,-37.109,-14.648,5.859,0.000
1738874097.787,-36.133,-44.434,-16.113,0.488,0.000
1738874097.791,-38.086,-29.785,-17.090,-11.230,0.000
1738874097.795,-27.344,-23.438,-15.137,-7.324,0.000
1738874097.799,-34.180,-28.320,-15.625,-13.672,0.000
1738874097.802,-24.414,-27.832,-15.625,-8.301,0.000
1738874097.806,-27.344,-16.602,-17.578,-12.207,0.000
1738874097.810,-31.738,-11.719,-16.602,-9.766,0.000
1738874097.814,-21.484,-15.137,-14.648,-5.859,0.000
1738874097.818,-18.066,-22.461,-19.531,-15.137,0.000
1738874097.822,-15.137,-25.879,-24.414,-18.555,0.000
1738874097.826,-16.602,-20.996,-22.461,-7.324,0.000
1738874097.830,-27.344,-20.020,-18.066,0.000,0.000
1738874097.834,-33.691,-18.555,-19.043,-10.254,0.000
1738874097.838,-30.273,-13.672,-18.066,-22.461,0.000
1738874097.842,-17.578,-13.184,-15.625,-24.902,0.000
1738874097.845,-20.508,-16.113,-21.484,-8.301,0.000
1738874097.849,-31.250,-17.090,-25.879,-24.414,0.000
1738874097.853,-34.668,-20.020,-24.414,-28.320,0.000
1738874097.857,-41.992,-27.344,-21.973,-23.926,0.000
1738874097.861,-45.898,-24.414,-17.578,-27.344,0.000
1738874097.865,-46.387,-22.461,-14.648,-24.902,0.000
1738874097.869,-37.598,-23.926,-14.160,-40.039,0.000
1738874097.873,-12.695,-19.043,-11.719,-21.484,0.000
1738874097.877,-10.742,-14.648,-16.113,-13.184,0.000
1738874097.881,-31.738,-6.348,-24.902,-31.738,0.000
1738874097.884,-37.109,-10.742,-27.344,-42.480,0.000
1738874097.888,-41.016,-18.555,-25.391,-37.598,0.000
1738874097.892,-30.273,-19.043,-21.973,-28.320,0.000
1738874097.896,-37.109,-15.625,-21.484,-40.039,0.000
1738874097.900,-47.363,-19.043,-20.508,-22.461,0.000
1738874097.904,-26.855,-20.508,-17.578,-6.836,0.000
1738874097.908,-14.648,-13.184,-14.160,-23.438,0.000
1738874097.912,-20.020,-13.184,-15.137,-26.367,0.000
1738874097.916,-20.508,-17.090,-16.113,-22.949,0.000
1738874097.920,-28.320,-22.461,-13.672,-21.973,0.000
1738874097.924,-40.527,-20.020,-18.066,-36.133,0.000
1738874097.927,-32.227,-13.184,-15.625,-41.504,0.000
1738874097.931,-15.137,-10.742,-6.348,-20.020,0.000
1738874097.935,-9.766,-6.348,-7.812,-8.789,0.000
1738874097.939,-19.043,-1.953,-10.254,-9.766,0.000
1738874097.943,-26.855,-7.812,-9.766,-14.648,0.000
1738874097.947,-28.809,-14.160,-12.207,-20.020,0.000
1738874097.951,-25.879,-15.137,-14.160,-16.113,0.000
1738874097.955,-37.109,-15.625,-13.184,-17.578,0.000
1738874097.959,-37.598,-19.043,-14.648,-15.137,0.000
1738874097.963,-29.297,-20.996,-14.160,-1.953,0.000
1738874097.966,-30.762,-20.020,-12.207,-8.301,0.000
1738874097.970,-20.508,-17.090,-14.160,-17.090,0.000
1738874097.974,-25.391,-15.625,-4.395,-4.883,0.000
1738874097.978,-27.344,-19.043,6.348,2.441,0.000
1738874097.982,-20.508,-17.578,-0.977,-6.348,0.000
1738874097.986,-32.227,-13.672,-4.395,-24.902,0.000
1738874097.990,-32.715,-14.160,-3.906,-14.160,0.000
1738874097.994,-20.508,-16.602,-6.348,9.277,0.000
1738874097.998,-22.949,-20.996,-6.348,0.977,0.000
1738874098.002,-26.855,-16.113,-8.789,-8.789,0.000
1738874098.006,-17.578,-12.695,-7.812,0.000,0.000
1738874098.009,-21.973,-12.695,-2.441,12.207,0.000
1738874098.013,-34.668,-7.812,-2.930,1.953,0.000
1738874098.017,-21.484,-8.301,-8.789,-21.484,0.000
1738874098.021,-19.531,-14.160,-14.160,-16.602,0.000
1738874098.025,-34.180,-15.625,-12.207,-16.113,0.000
1738874098.029,-30.762,-13.672,-14.160,-26.367,0.000
1738874098.033,-34.668,-17.090,-20.508,-28.320,0.000
1738874098.037,-36.133,-20.996,-20.508,-28.320,0.000
1738874098.041,-27.832,-18.555,-18.555,-23.926,0.000
1738874098.045,-23.926,-15.137,-21.973,-9.766,0.000
1738874098.049,-25.879,-11.230,-21.484,-11.719,0.000
1738874098.052,-24.902,-19.531,-18.555,-22.949,0.000
1738874098.056,-20.020,-25.391,-20.996,-22.461,0.000
1738874098.060,-22.949,-17.090,-23.926,-12.207,0.000
1738874098.064,-31.738,-24.902,-26.367,-18.555,0.000
1738874098.068,-33.203,-29.785,-24.902,-37.598,0.000
1738874098.072,-36.621,-25.879,-28.809,-29.297,0.000
1738874098.076,-31.250,-24.414,-31.250,-18.066,0.000
1738874098.080,-33.203,-20.996,-28.809,-22.461,0.000
1738874098.084,-46.875,-30.762,-29.297,-15.625,0.000
1738874098.088,-36.133,-32.715,-25.879,-12.695,0.000
1738874098.092,-31.250,-25.391,-23.926,-31.250,0.000
1738874098.095,-42.480,-30.762,-32.227,-28.809,0.000
1738874098.099,-34.180,-37.109,-36.621,-16.602,0.000
1738874098.103,-33.203,-34.668,-32.227,-18.555,0.000
1738874098.107,-49.316,-33.691,-33.691,-27.344,0.000
1738874098.111,-45.410,-37.598,-33.203,-22.461,0.000
1738874098.115,-29.785,-42.480,-31.250,-10.742,0.000
1738874098.119,-30.762,-37.598,-31.738,-18.555,0.000
1738874098.123,-41.504,-30.273,-31.738,-22.949,0.000
1738874098.127,-36.621,-35.645,-40.527,-23.438,0.000
1738874098.131,-43.457,-35.156,-35.645,-24.902,0.000
1738874098.134,-41.992,-32.227,-32.715,-28.320,0.000
1738874098.138,-39.062,-32.227,-29.785,-23.438,0.000
1738874098.142,-41.992,-32.227,-22.461,-4.395,0.000
1738874098.146,-41.016,-35.645,-32.227,-6.348,0.000
1738874098.150,-48.340,-32.715,-38.574,-34.668,0.000
1738874098.154,-48.340,-29.297,-34.668,-54.199,0.000
1738874098.158,-30.762,-32.227,-36.133,-35.645,0.000
1738874098.162,-36.133,-28.320,-34.180,-24.902,0.000
1738874098.166,-36.133,-16.602,-30.273,-41.992,0.000
1738874098.170,-24.902,-8.789,-21.973,-20.996,0.000
1738874098.174,-16.602,-11.719,-11.719,0.000,0.000
1738874098.177,-8.789,-11.719,-15.137,-18.555,0.000
1738874098.181,-28.809,-13.184,-21.973,-33.203,0.000
1738874098.185,-32.227,-20.020,-25.391,-31.250,0.000
1738874098.189,-38.086,-24.902,-28.320,-30.273,0.000
1738874098.193,-45.898,-30.273,-25.879,-44.434,0.000
1738874098.197,-45.410,-29.785,-22.949,-29.785,0.000
1738874098.201,-45.410,-31.250,-26.367,-16.602,0.000
1738874098.205,-31.738,-34.180,-30.273,-31.738,0.000
1738874098.209,-37.109,-23.438,-32.715,-35.645,0.000
1738874098.213,-45.898,-19.043,-31.250,-39.551,0.000
1738874098.216,-35.156,-21.973,-27.832,-34.180,0.000
1738874098.220,-38.574,-18.555,-23.926,-18.066,0.000
1738874098.224,-36.133,-15.625,-21.973,-24.414,0.000
1738874098.228,-47.852,-16.113,-23.438,-41.016,0.000
1738874098.232,-58.105,-26.855,-20.508,-39.062,0.000
1738874098.236,-52.734,-31.738,-25.391,-44.434,0.000
1738874098.240,-55.664,-22.461,-27.344,-41.016,0.000
1738874098.244,-60.547,-25.391,-18.555,-40.039,0.000
1738874098.248,-76.660,-33.203,-15.625,-60.547,0.000
1738874098.252,-95.215,-41.992,-26.367,-79.102,0.000
1738874098.256,-111.816,-41.504,-29.785,-88.379,0.000
1738874098.259,-128.906,-34.668,-11.719,-95.703,0.000
1738874098.263,-140.625,-32.227,-7.324,-122.070,0.000
1738874098.267,-164.551,-33.691,-6.348,-149.902,0.000
1738874098.271,-186.523,-37.109,-7.812,-180.176,0.000
1738874098.275,-190.430,-34.668,-5.859,-189.453,0.000
1738874098.279,-203.613,-39.062,-6.836,-201.172,0.000
1738874098.283,-230.957,-46.875,-10.742,-232.422,0.000
1738874098.287,-252.930,-42.969,7.324,-250.488,0.000
1738874098.291,-251.465,-34.180,19.043,-243.652,0.000
1738874098.295,-254.395,-39.551,-3.906,-254.395,0.000
1738874098.299,-262.695,-35.645,-16.113,-258.789,0.000
1738874098.302,-249.023,-35.156,-2.441,-243.652,0.000
1738874098.306,-250.000,-43.457,0.488,-253.418,0.000
1738874098.310,-241.211,-32.715,4.883,-239.258,0.000
1738874098.314,-230.957,-25.391,7.324,-232.422,0.000
1738874098.318,-222.656,-27.832,12.695,-236.328,0.000
1738874098.322,-209.961,-27.832,21.973,-212.402,0.000
1738874098.326,-203.125,-25.879,26.367,-196.777,0.000
1738874098.330,-193.848,-17.578,32.715,-190.918,0.000
1738874098.334,-177.246,-14.160,39.062,-174.316,0.000
1738874098.338,-166.504,-13.672,43.457,-160.645,0.000
1738874098.341,-156.250,-3.906,43.945,-145.996,0.000
1738874098.345,-140.137,4.883,38.086,-144.043,0.000
1738874098.349,-116.211,4.883,40.039,-130.859,0.000
1738874098.353,-97.656,8.301,41.504,-111.328,0.000
1738874098.357,-102.539,11.719,37.109,-100.586,0.000
1738874098.361,-100.586,7.324,32.227,-83.008,0.000
1738874098.365,-86.914,-1.465,24.902,-72.266,0.000
1738874098.369,-68.848,-5.859,24.414,-69.824,0.000
1738874098.373,-45.410,-5.371,21.484,-32.227,0.000
1738874098.377,-42.969,-10.742,14.648,-18.555,0.000
1738874098.381,-55.664,-19.531,17.090,-31.738,0.000
1738874098.384,-53.711,-30.762,14.648,-27.344,0.000
1738874098.388,-24.414,-29.297,9.277,-9.277,0.000
1738874098.392,-0.488,-20.020,8.789,10.742,0.000
1738874098.396,7.812,-17.578,8.789,27.344,0.000
1738874098.400,10.254,-16.113,8.789,31.250,0.000
1738874098.404,5.371,-14.160,3.418,30.273,0.000
1738874098.408,15.625,-8.789,-0.488,38.574,0.000
1738874098.412,42.969,-7.812,-2.441,44.922,0.000
1738874098.416,53.223,-8.789,-4.395,49.805,0.000
1738874098.420,53.711,-3.418,-5.859,61.035,0.000
1738874098.423,55.664,-0.977,-13.184,70.801,0.000
1738874098.427,62.012,-11.719,-18.555,82.031,0.000
1738874098.431,66.895,-13.672,-19.531,76.172,0.000
1738874098.435,50.781,-11.719,-23.438,44.434,0.000
1738874098.439,48.340,-10.254,-26.855,53.711,0.000
1738874098.443,50.293,-7.324,-26.367,69.336,0.000
1738874098.447,54.199,-9.277,-27.832,65.918,0.000
1738874098.451,56.152,-6.836,-26.367,66.406,0.000
1738874098.455,47.852,-8.789,-22.949,65.430,0.000
1738874098.459,52.734,-6.348,-26.367,60.059,0.000
1738874098.463,36.621,-6.836,-27.832,59.082,0.000
1738874098.466,38.086,-10.742,-28.809,69.824,0.000
1738874098.470,52.734,-10.742,-29.785,66.895,0.000
1738874098.474,46.875,-14.648,-29.785,67.871,0.000
1738874098.478,31.250,-15.625,-28.809,74.219,0.000
1738874098.482,35.156,-12.207,-33.203,70.801,0.000
1738874098.486,36.621,-9.277,-36.621,56.641,0.000
1738874098.490,35.645,-8.789,-35.156,47.363,0.000
1738874098.494,24.902,-11.719,-40.527,49.805,0.000
1738874098.498,31.250,-10.742,-39.062,47.363,0.000
1738874098.502,44.434,-12.207,-34.668,52.734,0.000
1738874098.506,18.555,-14.648,-41.016,60.059,0.000
1738874098.509,21.484,-10.254,-40.527,49.805,0.000
1738874098.513,26.367,-10.254,-39.062,41.992,0.000
1738874098.517,23.438,-13.184,-34.668,51.758,0.000
1738874098.521,20.996,-13.672,-27.832,51.270,0.000
1738874098.525,20.508,-4.883,-30.273,36.621,0.000
1738874098.529,27.832,3.418,-32.715,37.598,0.000
1738874098.533,17.578,-8.301,-28.809,41.016,0.000
1738874098.537,15.137,-13.672,-25.879,42.969,0.000
1738874098.541,31.250,-3.418,-28.320,40.039,0.000
1738874098.545,20.508,-2.441,-30.273,37.109,0.000
1738874098.548,8.301,-0.977,-30.762,36.133,0.000
1738874098.552,13.184,-1.953,-31.738,33.691,0.000
1738874098.556,8.301,-2.930,-31.738,32.227,0.000
1738874098.560,7.324,-3.906,-24.902,30.762,0.000
1738874098.564,8.789,-8.789,-23.438,25.391,0.000
1738874098.568,5.371,-12.695,-27.344,16.113,0.000
1738874098.572,-0.977,-16.113,-28.320,3.418,0.000
1738874098.576,-2.930,-18.066,-26.855,18.066,0.000
1738874098.580,-5.371,-17.090,-24.902,29.297,0.000
1738874098.584,-5.859,-13.184,-22.949,12.695,0.000
1738874098.588,-0.488,-8.301,-21.484,6.836,0.000
1738874098.591,-1.953,-12.695,-16.113,28.320,0.000
1738874098.595,1.953,-21.973,-13.184,37.109,0.000
1738874098.599,-5.859,-20.020,-20.996,6.836,0.000
1738874098.603,7.812,-18.066,-23.926,-0.488,0.000
1738874098.607,13.184,-18.066,-20.020,19.043,0.000
1738874098.611,0.977,-16.113,-20.020,9.277,0.000
1738874098.615,-5.371,-16.602,-26.855,-11.230,0.000
1738874098.619,-11.230,-15.625,-27.832,2.930,0.000
1738874098.623,20.020,-12.207,-24.902,16.602,0.000
1738874098.627,22.949,-12.207,-23.926,8.301,0.000
1738874098.630,-12.207,-10.254,-29.785,1.465,0.000
1738874098.634,-2.930,-12.207,-31.738,7.324,0.000
1738874098.638,3.906,-16.602,-27.344,0.000,0.000
1738874098.642,2.930,-15.625,-29.785,-9.766,0.000
1738874098.646,-2.930,-12.695,-28.809,-3.418,0.000
1738874098.650,-15.625,-14.160,-25.391,-8.789,0.000
1738874098.654,-25.391,-17.090,-22.949,-0.488,0.000
1738874098.658,-28.320,-18.555,-22.949,8.789,0.000
1738874098.662,-24.414,-23.926,-28.320,0.488,0.000
1738874098.666,-31.738,-32.227,-28.320,-9.277,0.000
1738874098.670,-18.066,-41.016,-23.438,1.465,0.000
1738874098.673,-17.090,-33.691,-27.344,-4.883,0.000
1738874098.677,-26.855,-30.762,-29.785,-11.230,0.000
1738874098.681,-17.090,-38.086,-28.809,-8.789,0.000
1738874098.685,-36.621,-39.062,-33.203,-28.320,0.000
1738874098.689,-45.898,-38.086,-32.715,-24.902,0.000
1738874098.693,-39.062,-37.598,-32.227,-28.809,0.000
1738874098.697,-34.180,-36.621,-32.715,-20.996,0.000
1738874098.701,-39.062,-38.086,-33.203,-19.531,0.000
1738874098.705,-43.945,-31.738,-27.832,-28.320,0.000
1738874098.709,-46.875,-29.297,-26.367,-22.461,0.000
1738874098.713,-43.457,-37.598,-26.367,-9.766,0.000
1738874098.716,-31.738,-40.039,-19.043,-16.602,0.000
1738874098.720,-26.855,-32.227,-19.531,-34.668,0.000
1738874098.724,-31.250,-27.344,-26.367,-29.297,0.000
1738874098.728,-42.480,-33.691,-28.320,-15.137,0.000
1738874098.732,-36.621,-36.133,-28.809,-15.625,0.000
1738874098.736,-26.367,-26.367,-34.180,-34.668,0.000
1738874098.740,-31.250,-22.461,-33.203,-7.324,0.000
1738874098.744,-36.133,-30.762,-19.531,6.348,0.000
1738874098.748,-62.988,-29.297,-11.719,-24.902,0.000
1738874098.752,-57.617,-32.715,-15.625,-29.785,0.000
1738874098.755,-21.973,-36.621,-17.090,-12.207,0.000
1738874098.759,-15.137,-36.621,-20.508,-5.371,0.000
1738874098.763,-34.180,-31.250,-22.949,-14.160,0.000
1738874098.767,-40.527,-24.902,-27.832,-28.320,0.000
1738874098.771,-28.320,-26.855,-24.902,-12.695,0.000
1738874098.775,-31.250,-21.973,-20.020,-6.836,0.000
1738874098.779,-35.156,-18.066,-26.855,-5.859,0.000
1738874098.783,-28.809,-23.926,-27.344,-10.742,0.000
1738874098.787,-21.973,-24.414,-24.902,-32.715,0.000
1738874098.791,-34.668,-20.020,-23.926,-26.367,0.000
1738874098.795,-39.062,-19.531,-25.391,-19.043,0.000
1738874098.798,-31.250,-24.902,-25.391,-17.090,0.000
1738874098.802,-26.367,-31.738,-22.949,-22.461,0.000
1738874098.806,-20.020,-30.273,-20.996,-18.555,0.000
1738874098.810,-34.668,-22.461,-23.926,-16.113,0.000
1738874098.814,-41.992,-19.043,-27.832,-31.738,0.000
1738874098.818,-42.969,-30.762,-33.203,-39.551,0.000
1738874098.822,-45.410,-31.738,-29.785,-36.621,0.000
1738874098.826,-42.480,-19.043,-26.367,-29.297,0.000
1738874098.830,-44.434,-22.949,-30.273,-22.461,0.000
1738874098.834,-52.734,-27.832,-30.273,-36.133,0.000
1738874098.838,-48.340,-25.391,-30.762,-34.180,0.000
1738874098.841,-49.316,-21.973,-29.297,-10.742,0.000
1738874098.845,-44.922,-24.414,-26.855,-8.301,0.000
1738874098.849,-31.738,-26.855,-28.809,-12.207,0.000
1738874098.853,-33.203,-25.391,-27.832,-18.066,0.000
1738874098.857,-35.645,-24.414,-22.949,-25.391,0.000
1738874098.861,-31.738,-21.484,-20.020,-18.555,0.000
1738874098.865,-32.227,-26.855,-22.949,-15.625,0.000
1738874098.869,-35.645,-24.414,-26.855,-20.996,0.000
1738874098.873,-44.922,-14.648,-28.809,-27.344,0.000
1738874098.877,-42.969,-20.508,-33.691,-17.578,0.000
1738874098.880,-27.344,-19.531,-31.738,-20.508,0.000
1738874098.884,-27.832,-16.602,-26.855,-35.156,0.000
1738874098.888,-34.668,-18.066,-24.902,-22.949,0.000
1738874098.892,-37.598,-24.902,-23.438,-10.742,0.000
1738874098.896,-42.480,-24.902,-27.832,-28.320,0.000
1738874098.900,-44.922,-22.949,-30.762,-42.969,0.000
1738874098.904,-46.875,-26.855,-32.715,-34.668,0.000
1738874098.908,-46.387,-28.809,-29.785,-24.902,0.000
1738874098.912,-37.109,-30.273,-30.273,-19.531,0.000
1738874098.916,-46.387,-21.484,-31.250,-34.180,0.000
1738874098.920,-38.086,-16.602,-25.879,-34.668,0.000
1738874098.923,-37.598,-22.461,-25.391,-23.438,0.000
1738874098.927,-42.969,-23.438,-24.902,-36.621,0.000
1738874098.931,-39.551,-23.438,-20.508,-49.805,0.000
1738874098.935,-48.340,-25.879,-17.578,-35.156,0.000
1738874098.939,-46.875,-25.391,-20.508,-26.855,0.000
1738874098.943,-46.875,-27.832,-24.902,-23.438,0.000
1738874098.947,-40.527,-23.926,-27.832,-15.625,0.000
1738874098.951,-44.434,-24.902,-26.367,-21.484,0.000
1738874098.955,-42.480,-31.250,-26.855,-18.066,0.000
1738874098.959,-34.180,-22.949,-24.414,-18.066,0.000
1738874098.962,-47.852,-13.184,-18.066,-22.949,0.000
1738874098.966,-36.133,-20.508,-18.555,-36.133,0.000
1738874098.970,-20.508,-23.438,-27.832,-37.598,0.000
1738874098.974,-55.176,-14.160,-35.645,-29.785,0.000
1738874098.978,-66.895,-19.043,-29.785,-42.480,0.000
1738874098.982,-53.223,-20.996,-22.461,-41.016,0.000
1738874098.986,-39.062,-20.508,-20.996,-26.367,0.000
1738874098.990,-34.180,-24.902,-24.902,-20.996,0.000
1738874098.994,-41.504,-23.438,-26.367,-14.160,0.000
1738874098.998,-49.805,-29.297,-24.902,-7.812,0.000
1738874099.002,-39.551,-32.715,-31.250,-18.066,0.000
1738874099.005,-38.086,-27.344,-30.762,-33.203,0.000
1738874099.009,-47.363,-31.250,-27.344,-25.879,0.000
1738874099.013,-56.641,-33.691,-22.949,-26.855,0.000
1738874099.017,-57.617,-33.691,-18.555,-43.457,0.000
1738874099.021,-48.340,-29.297,-22.949,-39.551,0.000
1738874099.025,-51.758,-21.973,-20.508,-30.762,0.000
1738874099.029,-48.828,-19.043,-20.996,-20.508,0.000
1738874099.033,-48.828,-23.438,-23.926,-16.602,0.000
1738874099.037,-34.180,-29.785,-19.531,-23.926,0.000
1738874099.041,-37.598,-28.320,-19.531,-30.762,0.000
1738874099.045,-41.504,-31.250,-23.438,-25.391,0.000
1738874099.048,-35.156,-27.344,-26.855,-28.809,0.000
1738874099.052,-49.316,-24.902,-25.879,-34.180,0.000
1738874099.056,-41.504,-26.367,-24.902,-19.531,0.000
1738874099.060,-29.785,-21.484,-27.344,-18.555,0.000
1738874099.064,-33.203,-16.602,-22.949,-31.250,0.000
1738874099.068,-30.273,-14.648,-22.949,-32.715,0.000
1738874099.072,-29.297,-15.137,-22.949,-19.531,0.000
1738874099.076,-18.555,-19.043,-19.043,-0.488,0.000
1738874099.080,-19.043,-20.996,-18.555,-7.324,0.000
1738874099.084,-37.109,-22.461,-18.066,-33.691,0.000
1738874099.087,-39.551,-23.926,-19.043,-20.508,0.000
1738874099.091,-35.156,-18.066,-21.484,-6.836,0.000
1738874099.095,-40.527,-13.184,-18.555,-24.414,0.000
1738874099.099,-55.664,-23.438,-20.996,-34.668,0.000
1738874099.103,-50.293,-30.273,-22.461,-28.320,0.000
1738874099.107,-42.480,-21.973,-19.043,-12.695,0.000
1738874099.111,-47.363,-20.508,-18.066,-11.719,0.000
1738874099.115,-47.363,-26.367,-18.066,-31.738,0.000
1738874099.119,-39.062,-32.227,-19.531,-28.320,0.000
1738874099.123,-29.785,-29.785,-17.578,-13.184,0.000
1738874099.127,-35.156,-24.414,-14.160,-17.578,0.000
1738874099.130,-44.922,-29.785,-20.996,-37.109,0.000
1738874099.134,-38.086,-39.551,-21.484,-27.832,0.000
1738874099.138,-38.574,-36.621,-21.484,-29.297,0.000
1738874099.142,-40.527,-21.484,-19.043,-32.227,0.000
1738874099.146,-44.434,-19.043,-16.602,-29.297,0.000
1738874099.150,-36.133,-21.973,-22.949,-42.480,0.000
1738874099.154,-36.133,-22.949,-23.438,-34.668,0.000
1738874099.158,-28.809,-24.414,-25.391,-29.297,0.000
1738874099.162,-11.230,-26.855,-21.973,-15.625,0.000
1738874099.166,-45.898,-25.391,-18.555,-16.602,0.000
1738874099.169,-40.527,-19.531,-18.555,-23.438,0.000
1738874099.173,-22.949,-17.090,-13.672,-7.812,0.000
1738874099.177,-41.992,-21.484,-10.254,-12.695,0.000
1738874099.181,-44.922,-29.297,-12.695,-12.695,0.000
1738874099.185,-29.297,-24.414,-14.160,-4.395,0.000
1738874099.189,-32.715,-19.043,-15.625,-20.508,0.000
1738874099.193,-35.156,-23.926,-18.555,-19.531,0.000
1738874099.197,-34.668,-27.344,-19.043,-12.695,0.000
1738874099.201,-37.598,-22.461,-16.602,-22.949,0.000
1738874099.205,-35.156,-19.531,-12.695,-22.461,0.000
1738874099.209,-34.180,-17.090,-12.695,-18.555,0.000
1738874099.212,-46.875,-14.648,-17.090,-14.160,0.000
1738874099.216,-50.781,-20.508,-13.184,-20.020,0.000
1738874099.220,-42.480,-25.879,-8.301,-36.133,0.000
1738874099.224,-36.621,-28.809,-17.090,-27.832,0.000
1738874099.228,-34.180,-28.320,-25.391,-19.531,0.000
1738874099.232,-44.434,-25.391,-22.949,-28.320,0.000
1738874099.236,-41.016,-25.879,-23.438,-34.180,0.000
1738874099.240,-32.715,-26.855,-21.973,-23.438,0.000
1738874099.244,-37.109,-23.438,-21.484,-22.949,0.000
1738874099.248,-49.805,-22.461,-25.391,-25.879,0.000
1738874099.252,-43.945,-24.902,-29.297,-23.926,0.000
1738874099.255,-32.715,-20.508,-28.809,-19.043,0.000
1738874099.259,-42.480,-14.160,-24.902,-19.531,0.000
1738874099.263,-55.664,-17.578,-20.020,-28.320,0.000
1738874099.267,-45.898,-26.367,-20.508,-32.715,0.000
1738874099.271,-38.086,-30.273,-24.414,-26.367,0.000
1738874099.275,-38.574,-26.855,-24.902,-25.879,0.000
1738874099.279,-30.762,-23.438,-26.855,-31.250,0.000
1738874099.283,-20.996,-25.391,-20.508,-22.461,0.000
1738874099.287,-33.203,-28.320,-21.973,-6.348,0.000
1738874099.291,-58.105,-23.438,-25.879,-14.160,0.000
1738874099.294,-50.293,-19.531,-21.484,-36.133,0.000
1738874099.298,-41.504,-22.461,-22.949,-36.621,0.000
1738874099.302,-51.270,-23.926,-21.484,-37.598,0.000
1738874099.306,-48.828,-20.020,-20.020,-28.809,0.000
1738874099.310,-43.457,-23.438,-15.137,-13.672,0.000
1738874099.314,-43.457,-28.320,-13.184,-26.367,0.000
1738874099.318,-47.852,-25.879,-13.672,-37.109,0.000
1738874099.322,-42.969,-23.438,-13.184,-21.484,0.000
1738874099.326,-34.668,-25.391,-15.137,-9.766,0.000
1738874099.330,-38.086,-25.391,-17.090,-16.113,0.000
1738874099.334,-49.805,-18.066,-20.508,-21.484,0.000
1738874099.337,-50.781,-12.695,-24.902,-32.227,0.000
1738874099.341,-37.598,-18.066,-27.344,-38.086,0.000
1738874099.345,-42.969,-21.484,-24.902,-24.414,0.000
1738874099.349,-43.457,-22.461,-21.973,-38.574,0.000
1738874099.353,-36.133,-20.996,-21.973,-39.062,0.000
1738874099.357,-40.527,-19.043,-28.320,-22.461,0.000
1738874099.361,-34.668,-27.832,-29.297,-20.020,0.000
1738874099.365,-25.391,-34.180,-23.926,-20.996,0.000
1738874099.369,-32.227,-22.461,-23.438,-30.273,0.000
1738874099.373,-38.574,-22.461,-24.414,-28.320,0.000
1738874099.376,-27.344,-22.461,-22.461,-17.090,0.000
1738874099.380,-37.109,-13.184,-26.855,-18.066,0.000
1738874099.384,-42.480,-15.625,-26.855,-29.785,0.000
1738874099.388,-36.133,-16.602,-24.414,-31.250,0.000
1738874099.392,-52.246,-17.090,-27.832,-31.738,0.000
1738874099.396,-60.059,-19.043,-23.438,-40.039,0.000
1738874099.400,-49.805,-18.066,-17.578,-21.973,0.000
1738874099.404,-35.645,-17.090,-18.555,-12.695,0.000
1738874099.408,-38.086,-14.160,-21.973,-11.230,0.000
1738874099.412,-40.527,-15.137,-18.066,-1.465,0.000
1738874099.416,-24.902,-21.484,-14.160,-8.301,0.000
1738874099.419,0.488,-22.949,-15.625,-10.742,0.000
1738874099.423,-10.742,-13.184,-19.043,-34.180,0.000
1738874099.427,-30.762,-5.371,-19.043,-43.945,0.000
1738874099.431,-22.949,-10.742,-17.090,-25.879,0.000
1738874099.435,-16.113,-9.766,-15.625,-33.203,0.000
1738874099.439,-39.062,-4.395,-18.555,-40.039,0.000
1738874099.443,-53.711,-2.441,-19.043,-35.156,0.000
1738874099.447,-46.387,-4.883,-15.137,-41.016,0.000
1738874099.451,-45.898,-14.160,-15.137,-42.969,0.000
1738874099.455,-43.457,-16.113,-18.555,-32.715,0.000
1738874099.459,-39.062,-12.695,-20.508,-30.273,0.000
1738874099.462,-32.227,-13.184,-20.508,-28.809,0.000
1738874099.466,-27.832,-15.137,-17.578,-31.250,0.000
1738874099.470,-34.668,-9.766,-14.648,-26.367,0.000
1738874099.474,-29.785,-7.812,-17.090,-18.066,0.000
1738874099.478,-22.461,-11.230,-17.090,-19.043,0.000
1738874099.482,-30.273,-14.160,-16.602,-20.020,0.000
1738874099.486,-32.227,-7.812,-12.695,-28.320,0.000
1738874099.490,-30.273,-7.324,-11.230,-20.996,0.000
1738874099.494,-32.227,-20.020,-15.625,-7.812,0.000
1738874099.498,-40.527,-22.461,-18.066,-20.508,0.000
1738874099.501,-36.133,-20.020,-16.113,-40.039,0.000
1738874099.505,-35.156,-25.879,-21.484,-34.668,0.000
1738874099.509,-31.250,-30.762,-25.391,-25.391,0.000
1738874099.513,-32.715,-29.297,-22.461,-28.809,0.000
1738874099.517,-41.016,-24.414,-25.879,-45.410,0.000
1738874099.521,-39.062,-22.949,-20.996,-37.598,0.000
1738874099.525,-41.992,-23.926,-18.555,-26.855,0.000
1738874099.529,-49.805,-20.508,-25.391,-33.691,0.000
1738874099.533,-42.480,-20.508,-25.391,-23.926,0.000
1738874099.537,-28.809,-24.902,-17.578,-16.602,0.000
1738874099.541,-40.039,-26.367,-17.090,-23.926,0.000
1738874099.544,-48.340,-25.391,-22.949,-29.297,0.000
1738874099.548,-43.457,-24.414,-26.367,-35.645,0.000
1738874099.552,-39.551,-30.273,-26.855,-26.855,0.000
1738874099.556,-39.062,-35.645,-25.879,-24.902,0.000
1738874099.560,-28.809,-26.855,-29.297,-31.738,0.000
1738874099.564,-31.250,-20.508,-28.809,-48.828,0.000
1738874099.568,-38.086,-23.926,-28.809,-40.039,0.000
1738874099.572,-25.391,-20.508,-26.855,-17.578,0.000
1738874099.576,-18.555,-17.090,-28.809,-31.738,0.000
1738874099.580,-12.207,-22.949,-30.762,-27.344,0.000
1738874099.583,-19.531,-23.438,-31.250,-26.367,0.000
1738874099.587,-30.762,-18.555,-31.738,-22.461,0.000
1738874099.591,-24.414,-12.695,-20.996,-4.395,0.000
1738874099.595,-24.902,-17.578,-17.578,-11.719,0.000
1738874099.599,-35.156,-25.879,-20.020,-22.949,0.000
1738874099.603,-30.273,-26.367,-17.578,-18.555,0.000
1738874099.607,-28.809,-24.902,-20.508,-14.160,0.000
1738874099.611,-47.852,-23.438,-20.508,-13.672,0.000
1738874099.615,-40.039,-25.879,-17.578,-37.109,0.000
1738874099.619,-38.574,-19.531,-24.902,-51.270,0.000
1738874099.623,-50.293,-14.160,-27.344,-42.480,0.000
1738874099.626,-35.645,-20.020,-22.949,-22.461,0.000
1738874099.630,-43.945,-21.484,-24.414,-24.902,0.000
1738874099.634,-57.617,-19.531,-21.484,-37.598,0.000
1738874099.638,-51.270,-23.438,-17.578,-22.949,0.000
1738874099.642,-41.992,-28.809,-20.020,-14.648,0.000
1738874099.646,-43.945,-28.809,-21.973,-24.414,0.000
1738874099.650,-47.363,-23.926,-21.973,-32.715,0.000
1738874099.654,-38.574,-25.879,-21.973,-37.109,0.000
1738874099.658,-16.602,-28.809,-22.949,-18.555,0.000
1738874099.662,-29.297,-28.809,-23.926,-11.719,0.000
1738874099.665,-53.711,-29.785,-22.949,-30.762,0.000
1738874099.669,-47.852,-32.227,-19.531,-32.715,0.000
1738874099.673,-33.203,-23.926,-20.508,-28.809,0.000
1738874099.677,-30.762,-18.066,-25.879,-24.414,0.000
1738874099.681,-28.809,-20.508,-22.461,-20.996,0.000
1738874099.685,-26.367,-20.508,-19.043,-17.090,0.000
1738874099.689,-13.184,-23.926,-19.043,-11.719,0.000
1738874099.693,-9.766,-29.297,-19.531,-29.297,0.000
1738874099.697,-32.715,-28.320,-23.438,-40.039,0.000
1738874099.701,-37.109,-21.973,-20.996,-22.949,0.000
1738874099.705,-29.785,-24.902,-19.043,-11.230,0.000
1738874099.708,-26.855,-19.531,-20.508,-11.719,0.000
1738874099.712,-37.109,-11.719,-16.602,-15.137,0.000
1738874099.716,-38.574,-20.020,-16.602,-29.785,0.000
1738874099.720,-19.043,-17.578,-18.555,-25.391,0.000
1738874099.724,-13.184,-16.113,-17.578,-16.602,0.000
1738874099.728,-18.066,-17.578,-16.113,-2.441,0.000
1738874099.732,-30.273,-19.531,-20.996,-16.113,0.000
1738874099.736,-26.367,-25.879,-23.926,-40.039,0.000
1738874099.740,-11.230,-22.949,-22.949,-20.020,0.000
1738874099.744,-23.926,-15.625,-25.391,-9.766,0.000
1738874099.748,-37.598,-14.160,-13.184,-10.254,0.000
1738874099.751,-24.414,-15.137,-7.812,-4.883,0.000
1738874099.755,-34.180,-8.301,-17.578,-8.301,0.000
1738874099.759,-44.434,-10.254,-20.020,-20.996,0.000
1738874099.763,-41.992,-18.555,-20.020,-32.715,0.000
1738874099.767,-44.922,-14.648,-23.438,-48.828,0.000
1738874099.771,-46.387,-9.766,-29.785,-42.969,0.000
1738874099.775,-37.598,-10.254,-25.391,-18.066,0.000
1738874099.779,-38.086,-12.695,-22.461,-30.762,0.000
1738874099.783,-44.434,-11.230,-26.855,-36.133,0.000
1738874099.787,-37.598,-15.625,-28.320,-12.695,0.000
1738874099.790,-38.574,-23.926,-21.484,-19.531,0.000
1738874099.794,-53.223,-29.297,-24.414,-38.086,0.000
1738874099.798,-48.340,-25.391,-29.297,-30.273,0.000
1738874099.802,-36.133,-14.648,-15.625,-22.949,0.000
1738874099.806,-48.828,-15.137,-14.160,-31.250,0.000
1738874099.810,-43.457,-21.484,-20.996,-26.367,0.000
1738874099.814,-42.969,-16.113,-18.555,-25.879,0.000
1738874099.818,-41.992,-13.672,-15.625,-22.949,0.000
1738874099.822,-37.598,-20.508,-12.207,-20.996,0.000
1738874099.826,-44.434,-20.508,-13.184,-28.320,0.000
1738874099.830,-41.504,-20.508,-21.973,-33.203,0.000
1738874099.833,-41.992,-29.785,-19.531,-26.367,0.000
1738874099.837,-38.086,-32.715,-13.672,-12.207,0.000
1738874099.841,-41.504,-30.762,-16.602,-31.738,0.000
1738874099.845,-50.781,-27.832,-15.625,-42.480,0.000
1738874099.849,-35.645,-29.297,-9.766,-24.902,0.000
1738874099.853,-33.203,-27.832,-8.301,-34.668,0.000
1738874099.857,-49.316,-21.484,-10.254,-40.039,0.000
1738874099.861,-37.598,-18.555,-8.301,-21.484,0.000
1738874099.865,-32.715,-21.484,-3.906,-30.273,0.000
1738874099.869,-30.762,-21.973,-9.766,-26.367,0.000
1738874099.873,-28.320,-17.090,-15.137,-13.184,0.000
1738874099.876,-41.016,-19.043,-16.602,-6.348,0.000
1738874099.880,-49.805,-24.414,-17.578,-12.695,0.000
1738874099.884,-40.039,-32.715,-20.996,-21.973,0.000
1738874099.888,-27.344,-30.273,-27.832,-16.602,0.000
1738874099.892,-31.738,-17.578,-20.996,-15.625,0.000
1738874099.896,-33.691,-20.020,-14.160,-2.930,0.000
1738874099.900,-31.738,-28.809,-18.555,-5.371,0.000
1738874099.904,-27.344,-23.926,-20.508,-24.414,0.000
1738874099.908,-31.250,-21.484,-19.043,-24.902,0.000
1738874099.912,-34.180,-35.156,-24.902,-21.484,0.000
1738874099.915,-31.738,-36.133,-30.273,-20.508,0.000
1738874099.919,-26.855,-30.762,-26.855,-22.461,0.000
1738874099.923,-34.668,-28.320,-25.879,-23.926,0.000
1738874099.927,-39.062,-26.367,-27.344,-17.578,0.000
1738874099.931,-41.504,-26.855,-26.367,-28.320,0.000
1738874099.935,-49.316,-26.855,-28.320,-30.762,0.000
1738874099.939,-50.781,-24.414,-29.297,-27.832,0.000
1738874099.943,-35.645,-31.250,-22.461,-30.273,0.000
1738874099.947,-32.715,-34.668,-21.973,-21.484,0.000
1738874099.951,-35.156,-23.438,-23.438,-23.438,0.000
1738874099.955,-42.969,-20.996,-20.020,-17.090,0.000
1738874099.958,-55.176,-26.367,-21.973,-13.184,0.000
1738874099.962,-49.805,-29.297,-21.973,-27.344,0.000
1738874099.966,-42.480,-30.762,-21.484,-33.203,0.000
1738874099.970,-47.852,-36.621,-30.762,-20.020,0.000
1738874099.974,-52.734,-39.551,-32.227,-9.277,0.000
1738874099.978,-48.828,-37.109,-24.414,-6.836,0.000
1738874099.982,-50.293,-31.738,-22.461,-23.438,0.000
1738874099.986,-41.992,-27.832,-23.438,-30.762,0.000
1738874099.990,-38.086,-26.855,-23.438,-13.184,0.000
1738874099.994,-53.223,-23.926,-24.414,-16.113,0.000
1738874099.997,-50.293,-19.531,-25.391,-35.645,0.000
1738874100.001,-40.527,-25.391,-25.879,-39.551,0.000
1738874100.005,-40.527,-32.227,-31.250,-24.902,0.000
1738874100.009,-38.086,-27.344,-27.344,-20.996,0.000
1738874100.013,-45.410,-27.344,-21.973,-33.691,0.000
1738874100.017,-37.598,-35.156,-27.344,-42.969,0.000
1738874100.021,-33.203,-39.062,-31.738,-37.598,0.000
1738874100.025,-42.969,-30.762,-30.762,-34.180,0.000
1738874100.029,-36.133,-28.320,-27.832,-24.902,0.000
1738874100.033,-27.344,-36.133,-20.508,-26.855,0.000
1738874100.037,-38.574,-29.297,-17.578,-19.531,0.000
1738874100.040,-35.645,-21.484,-20.020,-31.738,0.000
1738874100.044,-35.645,-25.879,-22.461,-42.480,0.000
1738874100.048,-48.340,-34.180,-21.973,-16.113,0.000
1738874100.052,-37.109,-35.156,-23.438,-18.555,0.000
1738874100.056,-37.598,-24.414,-27.832,-38.574,0.000
1738874100.060,-44.434,-23.926,-29.297,-37.109,0.000
1738874100.064,-41.992,-26.855,-29.297,-30.273,0.000
1738874100.068,-42.480,-29.297,-28.320,-24.902,0.000
1738874100.072,-41.016,-30.273,-30.273,-18.066,0.000
1738874100.076,-38.086,-26.855,-30.273,-17.578,0.000
1738874100.080,-46.875,-32.227,-29.785,-27.344,0.000
1738874100.083,-50.293,-36.621,-31.250,-33.691,0.000
1738874100.087,-49.805,-28.320,-25.391,-24.414,0.000
1738874100.091,-43.457,-25.879,-18.555,-11.230,0.000
1738874100.095,-48.828,-28.320,-22.949,-20.996,0.000
1738874100.099,-49.316,-24.902,-28.320,-27.832,0.000
1738874100.103,-40.039,-18.555,-30.762,-24.902,0.000
1738874100.107,-42.480,-22.949,-29.297,-13.672,0.000
1738874100.111,-45.898,-27.344,-28.320,-23.926,0.000
1738874100.115,-41.992,-27.832,-30.762,-42.480,0.000
1738874100.119,-33.691,-26.367,-32.227,-35.645,0.000
1738874100.122,-24.414,-23.926,-29.297,-17.090,0.000
1738874100.126,-27.344,-25.879,-27.832,-25.879,0.000
1738874100.130,-47.363,-26.367,-31.738,-39.062,0.000
1738874100.134,-44.922,-26.367,-32.715,-34.180,0.000
1738874100.138,-33.203,-31.250,-31.738,-35.645,0.000
1738874100.142,-25.879,-27.832,-30.762,-32.227,0.000
1738874100.146,-13.184,-22.461,-26.367,-25.879,0.000
1738874100.150,-26.367,-30.762,-25.879,-15.137,0.000
1738874100.154,-47.852,-31.738,-30.273,-21.973,0.000
1738874100.158,-46.387,-30.762,-32.227,-35.645,0.000
1738874100.162,-46.387,-35.156,-29.297,-34.668,0.000
1738874100.165,-44.434,-36.621,-28.809,-31.250,0.000
1738874100.169,-31.738,-38.086,-28.320,-20.020,0.000
1738874100.173,-27.832,-28.809,-26.367,-31.738,0.000
1738874100.177,-19.531,-15.625,-22.949,-41.992,0.000
1738874100.181,-35.156,-20.020,-20.508,-30.273,0.000
1738874100.185,-38.574,-20.996,-17.578,-20.020,0.000
1738874100.189,-31.738,-12.207,-16.113,-24.902,0.000
1738874100.193,-42.969,-15.625,-13.672,-30.273,0.000
1738874100.197,-33.203,-20.996,-9.766,-20.508,0.000
1738874100.201,-31.738,-20.996,-9.277,-30.273,0.000
1738874100.205,-35.156,-24.902,-6.836,-23.438,0.000
1738874100.208,-29.785,-25.391,-8.301,-11.230,0.000
1738874100.212,-21.484,-18.555,-9.277,-15.625,0.000
1738874100.216,-24.414,-18.555,-12.695,-25.879,0.000
1738874100.220,-43.945,-20.020,-18.555,-40.039,0.000
1738874100.224,-46.875,-22.461,-20.020,-28.320,0.000
1738874100.228,-34.180,-32.227,-20.508,-10.742,0.000
1738874100.232,-35.156,-35.156,-21.484,-26.367,0.000
1738874100.236,-40.527,-28.320,-23.926,-41.992,0.000
1738874100.240,-40.039,-25.391,-22.461,-17.578,0.000
1738874100.244,-41.504,-26.855,-16.602,-5.859,0.000
1738874100.247,-52.734,-28.809,-14.648,-16.113,0.000
1738874100.251,-52.734,-32.715,-21.973,-36.621,0.000
1738874100.255,-43.457,-34.668,-25.391,-38.574,0.000
1738874100.259,-28.320,-34.180,-23.438,-10.254,0.000
1738874100.263,-39.062,-34.180,-25.391,-11.719,0.000
1738874100.267,-51.758,-30.762,-24.902,-25.391,0.000
1738874100.271,-39.551,-27.832,-21.973,-25.879,0.000
1738874100.275,-43.945,-27.832,-20.996,-29.785,0.000
1738874100.279,-41.992,-33.203,-20.508,-31.738,0.000
1738874100.283,-46.875,-33.691,-20.508,-33.691,0.000
1738874100.287,-49.805,-33.691,-21.973,-18.555,0.000
1738874100.290,-46.875,-37.109,-20.996,-2.441,0.000
1738874100.294,-53.711,-33.203,-21.484,-27.832,0.000
1738874100.298,-38.574,-27.832,-23.438,-31.738,0.000
1738874100.302,-31.738,-31.250,-24.902,-11.230,0.000
1738874100.306,-50.293,-34.180,-24.902,-13.184,0.000
1738874100.310,-55.176,-31.250,-25.391,-33.203,0.000
1738874100.314,-48.340,-26.855,-21.484,-38.574,0.000
1738874100.318,-39.551,-26.367,-18.066,-26.367,0.000
1738874100.322,-40.527,-26.367,-15.137,-20.996,0.000
1738874100.326,-47.852,-21.484,-9.766,-23.438,0.000
1738874100.329,-41.504,-21.973,-11.719,-26.367,0.000
1738874100.333,-35.156,-23.438,-13.184,-20.508,0.000
1738874100.337,-31.738,-25.879,-14.648,-20.508,0.000
1738874100.341,-20.996,-22.949,-16.113,-25.391,0.000
1738874100.345,-31.250,-19.531,-14.648,-27.344,0.000
1738874100.349,-41.016,-25.879,-13.184,-18.066,0.000
1738874100.353,-29.297,-31.250,-12.207,-16.602,0.000
1738874100.357,-29.785,-26.367,-13.672,-34.668,0.000
1738874100.361,-33.203,-26.855,-17.578,-33.203,0.000
1738874100.365,-29.785,-34.180,-17.578,-36.133,0.000
1738874100.369,-28.320,-31.738,-16.602,-26.855,0.000
1738874100.372,-31.738,-24.902,-22.949,-9.277,0.000
1738874100.376,-32.227,-28.809,-26.367,-30.273,0.000
1738874100.380,-25.879,-32.715,-21.973,-28.320,0.000
1738874100.384,-33.203,-31.250,-21.973,-22.461,0.000
1738874100.388,-43.945,-31.738,-17.578,-21.484,0.000
1738874100.392,-41.504,-31.250,-16.602,-16.602,0.000
1738874100.396,-36.133,-34.668,-22.949,-23.438,0.000
1738874100.400,-33.691,-35.156,-21.973,-31.250,0.000
1738874100.404,-44.434,-31.250,-25.879,-27.832,0.000
1738874100.408,-36.621,-33.203,-30.273,-19.043,0.000
1738874100.412,-29.785,-33.691,-26.367,-3.418,0.000
1738874100.415,-37.109,-26.855,-25.391,-27.832,0.000
1738874100.419,-34.668,-24.414,-28.809,-47.852,0.000
1738874100.423,-29.297,-19.531,-21.973,-30.762,0.000
1738874100.427,-12.695,-6.836,-12.207,-15.625,0.000
1738874100.431,-25.879,-2.930,-16.113,-14.160,0.000
1738874100.435,-46.875,-0.977,-20.996,-42.480,0.000
1738874100.439,-43.457,-12.207,-18.555,-44.922,0.000
1738874100.443,-53.223,-14.160,-17.578,-35.156,0.000
1738874100.447,-74.707,8.789,-0.488,-72.266,0.000
1738874100.451,-77.637,5.371,5.371,-80.566,0.000
1738874100.454,-104.492,-17.090,-9.277,-76.660,0.000
1738874100.458,-132.324,-16.113,-9.277,-126.465,0.000
1738874100.462,-153.809,-0.488,-11.230,-166.016,0.000
1738874100.466,-183.105,-11.230,4.395,-185.547,0.000
1738874100.470,-202.148,-16.113,10.254,-212.402,0.000
1738874100.474,-237.305,-12.207,1.953,-240.723,0.000
1738874100.478,-247.559,-10.742,15.625,-246.582,0.000
1738874100.482,-250.488,-13.184,24.414,-255.859,0.000
1738874100.486,-255.371,-8.789,38.574,-251.465,0.000
1738874100.490,-250.000,-3.418,53.711,-250.000,0.000
1738874100.494,-241.211,-1.953,63.477,-259.277,0.000
1738874100.497,-229.004,-3.906,80.566,-240.723,0.000
1738874100.501,-216.309,-6.836,95.703,-222.168,0.000
1738874100.505,-209.961,5.371,102.539,-223.633,0.000
1738874100.509,-198.242,15.137,110.352,-200.684,0.000
1738874100.513,-175.293,15.625,113.281,-173.828,0.000
1738874100.517,-155.273,15.625,113.770,-166.504,0.000
1738874100.521,-147.461,20.020,111.816,-160.645,0.000
1738874100.525,-137.695,23.438,106.934,-143.555,0.000
1738874100.529,-133.301,18.555,103.516,-125.488,0.000
1738874100.533,-140.137,12.207,95.215,-124.023,0.000
1738874100.536,-125.488,8.789,83.008,-105.957,0.000
1738874100.540,-97.656,3.906,77.637,-68.359,0.000
1738874100.544,-72.266,-1.953,79.590,-44.922,0.000
1738874100.548,-57.129,-0.977,74.707,-38.574,0.000
1738874100.552,-52.734,7.324,68.359,-45.898,0.000
1738874100.556,-38.086,2.441,62.012,-42.480,0.000
1738874100.560,-21.484,0.977,60.547,-14.160,0.000
1738874100.564,-17.578,6.348,59.570,3.906,0.000
1738874100.568,1.465,4.395,54.688,24.414,0.000
1738874100.572,20.020,10.254,50.293,49.805,0.000
1738874100.576,23.438,15.625,43.457,48.340,0.000
1738874100.579,35.645,15.137,34.180,42.969,0.000
1738874100.583,44.434,13.184,33.691,46.875,0.000
1738874100.587,59.570,9.277,31.738,58.105,0.000
1738874100.591,60.547,8.301,22.949,72.754,0.000
1738874100.595,45.898,12.207,19.531,66.406,0.000
1738874100.599,62.988,13.672,17.090,59.082,0.000
1738874100.603,70.801,16.113,13.672,82.031,0.000
1738874100.607,48.828,15.137,14.160,92.285,0.000
1738874100.611,61.035,19.043,19.043,92.773,0.000
1738874100.615,82.031,22.461,19.531,98.633,0.000
1738874100.619,68.359,8.789,13.672,74.707,0.000
1738874100.622,56.641,11.719,2.930,63.965,0.000
1738874100.626,50.293,10.742,-7.812,67.871,0.000
1738874100.630,24.902,-2.441,-10.742,41.016,0.000
1738874100.634,-7.324,-0.488,-6.836,2.930,0.000
1738874100.638,-28.809,9.277,-2.930,-5.859,0.000
1738874100.642,-47.852,11.719,2.441,-16.602,0.000
1738874100.646,-73.242,13.184,12.207,-49.316,0.000
1738874100.650,-121.582,-5.859,8.301,-93.750,0.000
1738874100.654,-143.555,-17.090,7.812,-120.605,0.000
1738874100.658,-133.789,2.441,16.602,-130.371,0.000
1738874100.661,-157.227,5.859,22.949,-137.207,0.000
1738874100.665,-170.898,-3.906,33.691,-140.625,0.000
1738874100.669,-162.598,-14.160,27.344,-167.480,0.000
1738874100.673,-159.668,-15.137,21.484,-159.668,0.000
1738874100.677,-145.508,-17.578,23.926,-123.047,0.000
1738874100.681,-155.273,-20.996,26.367,-158.691,0.000
1738874100.685,-178.223,-17.578,22.461,-187.012,0.000
1738874100.689,-151.367,-3.906,26.367,-154.297,0.000
1738874100.693,-123.047,-4.395,25.391,-135.742,0.000
1738874100.697,-134.277,-15.137,16.113,-133.301,0.000
1738874100.701,-140.625,-11.230,15.625,-134.277,0.000
1738874100.704,-122.070,-0.977,29.785,-127.930,0.000
1738874100.708,-128.906,-5.371,30.762,-132.324,0.000
1738874100.712,-140.625,-16.602,29.785,-114.746,0.000
1738874100.716,-138.184,-14.648,41.992,-110.352,0.000
1738874100.720,-123.535,-2.441,43.945,-113.281,0.000
1738874100.724,-107.422,-4.883,38.086,-104.004,0.000
1738874100.728,-100.586,-9.277,33.203,-93.262,0.000
1738874100.732,-85.938,-1.465,36.133,-83.008,0.000
1738874100.736,-77.148,2.441,30.762,-83.984,0.000
1738874100.740,-76.660,-4.883,26.855,-78.613,0.000
1738874100.743,-78.613,0.000,23.438,-72.754,0.000
1738874100.747,-78.125,9.766,13.184,-68.359,0.000
1738874100.751,-60.547,9.766,11.230,-56.641,0.000
1738874100.755,-41.992,8.789,13.184,-47.852,0.000
1738874100.759,-26.855,13.672,9.277,-37.598,0.000
1738874100.763,-20.508,7.812,-14.160,-28.320,0.000
1738874100.767,-17.578,0.488,-20.020,-21.973,0.000
1738874100.771,-17.578,-1.953,-3.906,-2.930,0.000
1738874100.775,-18.555,-2.930,-7.324,4.883,0.000
1738874100.779,-15.137,1.465,-11.719,-11.230,0.000
1738874100.783,-6.836,-11.230,-9.277,-4.395,0.000
1738874100.786,6.836,-21.973,-10.742,13.184,0.000
1738874100.790,15.625,-6.836,-12.207,16.602,0.000
1738874100.794,15.137,-1.465,-11.719,26.367,0.000
1738874100.798,17.090,-6.348,-12.207,28.809,0.000
1738874100.802,31.250,-5.859,-12.207,25.879,0.000
1738874100.806,47.852,-0.488,-8.301,53.711,0.000
1738874100.810,49.316,0.488,-9.277,74.707,0.000
1738874100.814,48.340,-2.930,-15.137,69.336,0.000
1738874100.818,62.012,-4.395,-20.996,67.871,0.000
1738874100.822,69.824,-5.371,-25.879,76.660,0.000
1738874100.826,67.871,-2.441,-28.320,88.379,0.000
1738874100.829,65.918,-3.906,-28.320,88.867,0.000
1738874100.833,66.406,2.930,-27.344,79.590,0.000
1738874100.837,68.848,19.043,-20.996,87.891,0.000
1738874100.841,80.566,21.973,-15.137,109.863,0.000
1738874100.845,96.680,21.973,-19.043,127.930,0.000
1738874100.849,92.285,23.438,-20.508,113.281,0.000
1738874100.853,80.078,21.484,-17.578,83.496,0.000
1738874100.857,93.262,22.461,-17.090,91.797,0.000
1738874100.861,90.820,18.555,-20.508,98.633,0.000
1738874100.865,78.125,3.418,-30.762,87.891,0.000
1738874100.868,75.195,-0.977,-32.715,89.844,0.000
1738874100.872,69.824,-2.930,-31.738,93.750,0.000
1738874100.876,67.871,-6.348,-35.156,104.980,0.000
1738874100.880,52.734,-4.883,-36.133,86.426,0.000
1738874100.884,54.688,0.488,-39.062,61.035,0.000
1738874100.888,65.918,0.488,-35.156,83.008,0.000
1738874100.892,61.035,2.441,-32.227,83.496,0.000
1738874100.896,45.410,11.230,-36.621,64.941,0.000
1738874100.900,32.227,9.766,-34.180,54.688,0.000
1738874100.904,39.062,7.324,-34.668,43.457,0.000
1738874100.908,46.387,7.812,-41.992,53.711,0.000
1738874100.911,31.738,-1.953,-45.898,59.082,0.000
1738874100.915,19.531,-8.789,-46.387,44.434,0.000
1738874100.919,26.855,-10.742,-41.504,37.598,0.000
1738874100.923,26.855,-5.859,-33.203,44.434,0.000
1738874100.927,30.762,5.371,-32.227,58.105,0.000
1738874100.931,35.645,4.883,-33.203,62.500,0.000
1738874100.935,32.715,5.859,-34.180,49.805,0.000
1738874100.939,20.508,9.766,-31.250,42.969,0.000
1738874100.943,23.438,5.859,-26.855,43.457,0.000
1738874100.947,21.973,-3.418,-27.832,43.945,0.000
1738874100.951,11.230,-5.859,-29.785,38.086,0.000
1738874100.954,2.930,-3.418,-33.691,32.227,0.000
1738874100.958,6.348,-9.277,-30.762,36.133,0.000
1738874100.962,19.531,-14.160,-27.344,41.504,0.000
1738874100.966,26.855,-14.160,-24.414,28.809,0.000
1738874100.970,20.020,-6.836,-24.902,20.508,0.000
1738874100.974,7.324,-11.230,-28.320,19.043,0.000
1738874100.978,7.812,-16.113,-29.297,16.113,0.000
1738874100.982,3.418,-10.742,-25.391,20.996,0.000
1738874100.986,4.883,-6.836,-24.414,26.855,0.000
1738874100.990,-1.465,-4.883,-22.461,20.020,0.000
1738874100.993,-2.441,-8.301,-22.949,23.926,0.000
1738874100.997,0.000,-10.742,-25.879,20.996,0.000
1738874101.001,1.953,-16.602,-22.949,9.277,0.000
1738874101.005,2.441,-19.531,-24.902,4.883,0.000
1738874101.009,-2.441,-19.043,-36.133,-1.953,0.000
1738874101.013,-4.883,-16.602,-34.180,13.184,0.000
1738874101.017,-14.648,-16.602,-24.414,-4.883,0.000
1738874101.021,-35.156,-14.648,-24.414,-42.480,0.000
1738874101.025,-36.621,-22.949,-27.832,-15.137,0.000
1738874101.029,-33.203,-27.832,-32.715,-0.488,0.000
1738874101.033,-25.391,-26.855,-33.691,-15.137,0.000
1738874101.036,-11.230,-31.250,-31.738,-14.160,0.000
1738874101.040,-8.789,-23.438,-32.227,-1.465,0.000
1738874101.044,-22.949,-15.625,-33.691,-6.836,0.000
1738874101.048,-37.109,-20.996,-34.668,-15.137,0.000
1738874101.052,-21.973,-31.250,-29.297,2.441,0.000
1738874101.056,-27.344,-29.785,-28.320,-3.906,0.000
1738874101.060,-43.457,-17.090,-30.762,-30.762,0.000
1738874101.064,-27.344,-13.672,-25.879,-15.625,0.000
1738874101.068,-31.250,-20.508,-21.973,-1.953,0.000
1738874101.072,-38.574,-25.879,-22.949,-20.508,0.000
1738874101.075,-40.527,-23.438,-26.367,-16.113,0.000
1738874101.079,-33.691,-27.344,-29.785,-11.230,0.000
1738874101.083,-24.902,-30.762,-33.203,-19.043,0.000
1738874101.087,-38.574,-27.832,-33.203,-17.090,0.000
1738874101.091,-38.086,-21.973,-28.320,-6.348,0.000
1738874101.095,-29.785,-21.484,-29.297,0.000,0.000
1738874101.099,-39.062,-27.344,-36.133,-14.648,0.000
1738874101.103,-39.062,-23.438,-38.574,-38.086,0.000
1738874101.107,-38.574,-20.508,-41.992,-31.738,0.000
1738874101.111,-36.133,-20.508,-41.016,-8.789,0.000
1738874101.115,-38.574,-25.879,-40.527,-7.812,0.000
1738874101.118,-33.203,-30.273,-42.480,-31.250,0.000
1738874101.122,-31.250,-24.414,-37.598,-23.926,0.000
1738874101.126,-26.367,-24.414,-34.668,-0.977,0.000
1738874101.130,-27.344,-26.855,-37.598,-11.230,0.000
1738874101.134,-31.738,-25.391,-41.504,-36.133,0.000
1738874101.138,-29.785,-24.414,-35.645,-20.508,0.000
1738874101.142,-36.133,-28.320,-27.832,8.301,0.000
1738874101.146,-44.434,-33.203,-29.785,-11.230,0.000
1738874101.150,-29.785,-37.109,-31.738,-33.203,0.000
1738874101.154,-39.062,-30.762,-32.715,-26.855,0.000
1738874101.158,-49.805,-26.855,-26.855,-7.324,0.000
1738874101.161,-32.715,-34.668,-22.461,-4.395,0.000
1738874101.165,-43.457,-33.691,-23.926,-34.180,0.000
1738874101.169,-48.828,-29.297,-26.855,-35.156,0.000
1738874101.173,-38.574,-27.344,-29.297,-15.625,0.000
1738874101.177,-31.250,-29.297,-30.273,-18.555,0.000
1738874101.181,-46.875,-30.762,-33.203,-30.273,0.000
1738874101.185,-47.363,-26.367,-32.227,-27.832,0.000
1738874101.189,-32.715,-19.043,-23.926,-10.254,0.000
1738874101.193,-45.410,-18.066,-20.996,-15.625,0.000
1738874101.197,-39.062,-22.461,-13.672,-22.461,0.000
1738874101.200,-37.598,-28.809,-14.160,-30.273,0.000
1738874101.204,-37.598,-37.109,-21.973,-28.809,0.000
1738874101.208,-35.645,-32.715,-25.879,-22.461,0.000
1738874101.212,-38.086,-25.879,-26.855,-29.785,0.000
1738874101.216,-38.574,-32.227,-28.809,-25.879,0.000
1738874101.220,-41.016,-33.691,-29.297,-24.414,0.000
1738874101.224,-32.227,-27.344,-28.320,-22.461,0.000
1738874101.228,-36.621,-23.926,-29.297,-12.695,0.000
1738874101.232,-49.316,-30.273,-25.879,-17.578,0.000
1738874101.236,-32.715,-36.133,-21.973,-19.043,0.000
1738874101.240,-27.832,-32.227,-21.973,-10.254,0.000
1738874101.243,-26.367,-26.855,-26.367,-13.184,0.000
1738874101.247,-36.133,-29.785,-28.809,-2.441,0.000
1738874101.251,-48.828,-32.715,-28.809,-9.766,0.000
1738874101.255,-37.598,-23.926,-30.762,-19.043,0.000
1738874101.259,-35.156,-22.949,-29.785,-7.812,0.000
1738874101.263,-34.180,-29.785,-29.297,-9.277,0.000
1738874101.267,-37.109,-33.203,-32.227,-22.461,0.000
1738874101.271,-37.109,-29.785,-31.738,-26.855,0.000
1738874101.275,-47.852,-27.344,-26.855,-27.832,0.000
1738874101.279,-41.016,-27.344,-24.414,-22.949,0.000
1738874101.282,-27.832,-23.438,-25.879,-9.277,0.000
1738874101.286,-53.711,-26.855,-22.949,-33.203,0.000
1738874101.290,-59.082,-32.227,-19.043,-48.340,0.000
1738874101.294,-42.480,-31.250,-26.855,-30.762,0.000
1738874101.298,-47.363,-33.203,-28.320,-32.227,0.000
1738874101.302,-46.387,-31.250,-22.949,-36.621,0.000
1738874101.306,-28.320,-28.320,-21.973,-25.391,0.000
1738874101.310,-26.367,-34.668,-21.484,-13.184,0.000
1738874101.314,-47.363,-32.715,-20.996,-35.156,0.000
1738874101.318,-52.734,-30.273,-18.066,-42.969,0.000
1738874101.322,-37.109,-37.598,-22.949,-29.785,0.000
1738874101.325,-37.109,-32.227,-29.297,-35.645,0.000
1738874101.329,-48.340,-27.832,-31.250,-37.598,0.000
1738874101.333,-53.223,-35.156,-27.832,-31.250,0.000
1738874101.337,-50.781,-34.668,-19.531,-12.695,0.000
1738874101.341,-41.992,-29.785,-17.578,-3.906,0.000
1738874101.345,-42.480,-21.484,-22.461,-20.996,0.000
1738874101.349,-39.551,-20.508,-22.461,-30.273,0.000
1738874101.353,-36.133,-25.879,-25.879,-26.367,0.000
1738874101.357,-39.062,-28.320,-26.855,-20.508,0.000
1738874101.361,-37.109,-25.879,-29.297,-23.438,0.000
1738874101.365,-32.715,-27.344,-34.668,-26.367,0.000
1738874101.368,-29.297,-33.203,-35.645,-21.973,0.000
1738874101.372,-42.969,-30.762,-37.598,-21.484,0.000
1738874101.376,-38.086,-28.809,-32.227,-20.508,0.000
1738874101.380,-18.066,-29.297,-28.320,-17.578,0.000
1738874101.384,-26.367,-32.227,-28.809,-26.367,0.000
1738874101.388,-39.062,-32.715,-28.320,-20.020,0.000
1738874101.392,-53.711,-26.367,-26.367,-12.695,0.000
1738874101.396,-36.621,-19.043,-19.043,-24.902,0.000
1738874101.400,-34.180,-27.832,-21.484,-23.438,0.000
1738874101.404,-50.293,-24.414,-26.367,-29.785,0.000
1738874101.407,-45.410,-14.160,-26.855,-33.203,0.000
1738874101.411,-40.527,-18.066,-25.391,-18.555,0.000
1738874101.415,-33.203,-18.555,-22.461,-18.555,0.000
1738874101.419,-32.715,-19.043,-23.926,-29.785,0.000
1738874101.423,-35.156,-19.531,-23.926,-18.555,0.000
1738874101.427,-29.297,-22.461,-22.949,-7.812,0.000
1738874101.431,-27.832,-26.367,-20.020,-20.996,0.000
1738874101.435,-29.297,-19.531,-20.020,-31.250,0.000
1738874101.439,-31.250,-17.578,-20.020,-23.438,0.000
1738874101.443,-30.762,-24.414,-12.695,-8.789,0.000
1738874101.447,-30.762,-29.785,-15.137,-19.043,0.000
1738874101.450,-35.156,-30.273,-22.461,-35.645,0.000
1738874101.454,-22.461,-26.367,-19.531,-12.695,0.000
1738874101.458,-23.926,-25.391,-15.137,-4.883,0.000
1738874101.462,-30.762,-23.438,-18.555,-27.832,0.000
1738874101.466,-35.645,-24.902,-27.344,-38.086,0.000
1738874101.470,-31.250,-29.785,-26.855,-35.156,0.000
1738874101.474,-33.691,-28.320,-22.461,-11.719,0.000
1738874101.478,-47.852,-29.785,-24.902,-8.301,0.000
1738874101.482,-49.316,-28.809,-26.855,-30.762,0.000
1738874101.486,-55.176,-22.949,-32.227,-38.086,0.000
1738874101.489,-46.875,-25.879,-34.668,-35.645,0.000
1738874101.493,-46.387,-27.344,-33.203,-40.527,0.000
1738874101.497,-48.828,-18.066,-35.156,-44.434,0.000
1738874101.501,-38.574,-21.973,-35.156,-46.387,0.000
1738874101.505,-50.781,-27.344,-37.109,-33.691,0.000
1738874101.509,-51.270,-20.020,-30.762,-24.902,0.000
1738874101.513,-47.363,-22.949,-26.367,-28.809,0.000
1738874101.517,-41.504,-31.250,-29.297,-24.902,0.000
1738874101.521,-30.273,-32.715,-27.344,-29.785,0.000
1738874101.525,-41.504,-29.785,-30.762,-28.320,0.000
1738874101.529,-35.156,-26.855,-31.250,-21.484,0.000
1738874101.532,-18.066,-31.250,-29.785,-39.551,0.000
1738874101.536,-38.086,-27.344,-31.738,-40.527,0.000
1738874101.540,-60.547,-18.066,-32.227,-38.086,0.000
1738874101.544,-52.246,-22.461,-33.691,-38.574,0.000
1738874101.548,-44.434,-28.320,-26.367,-36.621,0.000
1738874101.552,-47.363,-27.344,-22.949,-27.344,0.000
1738874101.556,-41.016,-22.461,-24.902,-19.531,0.000
1738874101.560,-39.551,-21.484,-22.461,-19.043,0.000
1738874101.564,-40.039,-24.414,-23.926,-26.367,0.000
1738874101.568,-44.434,-29.297,-28.809,-40.527,0.000
1738874101.572,-53.223,-29.297,-32.715,-21.973,0.000
1738874101.575,-45.898,-28.320,-34.180,-13.184,0.000
1738874101.579,-39.551,-27.344,-28.320,-30.273,0.000
1738874101.583,-48.340,-21.484,-29.785,-31.738,0.000
1738874101.587,-41.504,-15.137,-31.250,-27.832,0.000
1738874101.591,-38.086,-16.113,-29.785,-19.531,0.000
1738874101.595,-36.133,-16.113,-28.809,-18.555,0.000
1738874101.599,-41.992,-13.672,-25.879,-22.461,0.000
1738874101.603,-33.691,-10.742,-26.855,-34.668,0.000
1738874101.607,-24.902,-10.254,-25.391,-25.879,0.000
1738874101.611,-23.926,-11.230,-27.344,-11.719,0.000
1738874101.614,-19.531,-14.648,-27.344,-19.531,0.000
1738874101.618,-33.203,-18.066,-27.832,-19.531,0.000
1738874101.622,-25.391,-18.066,-28.320,-6.836,0.000
1738874101.626,-20.020,-20.996,-29.297,-0.977,0.000
1738874101.630,-32.715,-17.090,-30.273,-5.371,0.000
1738874101.634,-33.203,-20.996,-27.832,-10.254,0.000
1738874101.638,-34.180,-26.855,-26.855,-12.695,0.000
1738874101.642,-34.668,-23.438,-30.273,-17.578,0.000
1738874101.646,-41.992,-21.973,-34.668,-33.691,0.000
1738874101.650,-46.387,-24.414,-34.180,-33.203,0.000
1738874101.654,-48.828,-24.902,-32.227,-21.484,0.000
1738874101.657,-35.645,-22.461,-26.367,-12.695,0.000
1738874101.661,-34.668,-25.879,-26.855,-19.531,0.000
1738874101.665,-50.781,-28.809,-36.133,-34.668,0.000
1738874101.669,-28.809,-35.645,-41.504,-29.785,0.000
1738874101.673,-24.414,-30.273,-41.992,-28.320,0.000
1738874101.677,-45.898,-18.066,-41.504,-31.250,0.000
1738874101.681,-35.645,-22.949,-40.527,-24.414,0.000
1738874101.685,-28.809,-25.879,-37.109,-24.902,0.000
1738874101.689,-28.320,-20.996,-33.691,-20.508,0.000
1738874101.693,-24.902,-18.066,-31.250,-5.371,0.000
1738874101.697,-27.344,-27.344,-32.715,-1.953,0.000
1738874101.700,-16.602,-28.809,-35.645,-12.695,0.000
1738874101.704,-2.441,-18.555,-31.250,-13.672,0.000
1738874101.708,-14.160,-16.602,-30.273,-11.719,0.000
1738874101.712,-47.363,-21.484,-38.574,-12.695,0.000
1738874101.716,-44.434,-22.949,-38.086,-17.578,0.000
1738874101.720,-37.109,-20.508,-33.691,-24.902,0.000
1738874101.724,-41.992,-17.578,-37.109,-20.508,0.000
1738874101.728,-31.250,-27.832,-33.691,-2.930,0.000
1738874101.732,-36.133,-35.156,-27.344,-7.812,0.000
1738874101.736,-41.016,-27.832,-29.785,-30.273,0.000
1738874101.739,-22.949,-23.438,-32.227,-9.277,0.000
1738874101.743,-27.832,-28.809,-32.227,-9.766,0.000
1738874101.747,-48.828,-35.156,-35.645,-29.785,0.000
1738874101.751,-42.969,-29.785,-32.715,-20.020,0.000
1738874101.755,-27.832,-25.391,-27.344,-13.672,0.000
1738874101.759,-24.902,-28.809,-25.391,-20.020,0.000
1738874101.763,-28.320,-31.738,-24.414,-27.344,0.000
1738874101.767,-38.574,-31.738,-23.926,-36.621,0.000
1738874101.771,-42.969,-30.273,-24.902,-32.227,0.000
1738874101.775,-36.133,-32.715,-22.461,-5.859,0.000
1738874101.779,-35.156,-29.785,-20.508,-11.230,0.000
1738874101.782,-45.898,-25.391,-23.438,-44.434,0.000
1738874101.786,-40.527,-27.832,-23.926,-45.898,0.000
1738874101.790,-29.297,-25.879,-20.020,-21.484,0.000
1738874101.794,-17.090,-17.578,-17.090,-9.277,0.000
1738874101.798,-26.367,-20.508,-20.020,-26.367,0.000
1738874101.802,-16.602,-30.273,-19.531,-19.043,0.000
1738874101.806,-8.789,-27.832,-19.043,3.906,0.000
1738874101.810,-33.691,-24.414,-18.555,-7.324,0.000
1738874101.814,-44.922,-24.902,-16.602,-22.949,0.000
1738874101.818,-41.992,-27.344,-20.020,-25.879,0.000
1738874101.821,-31.738,-27.832,-23.926,-12.207,0.000
1738874101.825,-34.668,-25.879,-23.926,-9.277,0.000
1738874101.829,-45.410,-26.855,-25.879,-29.297,0.000
1738874101.833,-39.062,-30.273,-28.809,-38.574,0.000
1738874101.837,-26.367,-29.785,-35.156,-29.297,0.000
1738874101.841,-20.020,-27.832,-39.551,-29.297,0.000
1738874101.845,-33.203,-28.809,-40.039,-34.180,0.000
1738874101.849,-53.223,-35.645,-36.133,-38.086,0.000
1738874101.853,-44.434,-36.621,-31.738,-35.156,0.000
1738874101.857,-35.645,-29.785,-28.809,-28.320,0.000
1738874101.861,-37.598,-31.250,-27.344,-28.809,0.000
1738874101.864,-42.480,-42.969,-24.902,-12.207,0.000
1738874101.868,-38.086,-39.062,-25.879,-25.879,0.000
1738874101.872,-33.691,-31.250,-30.762,-37.109,0.000
1738874101.876,-38.574,-35.156,-32.227,-30.762,0.000
1738874101.880,-39.551,-36.133,-31.738,-28.320,0.000
1738874101.884,-44.922,-33.691,-27.832,-30.273,0.000
1738874101.888,-52.246,-34.668,-30.273,-32.227,0.000
1738874101.892,-47.363,-39.062,-29.297,-21.484,0.000
1738874101.896,-44.434,-45.410,-20.020,-17.578,0.000
1738874101.900,-44.922,-45.898,-23.926,-26.367,0.000
1738874101.904,-40.039,-32.715,-28.320,-25.391,0.000
1738874101.907,-32.227,-35.156,-25.879,-7.812,0.000
1738874101.911,-32.715,-42.969,-28.320,-10.742,0.000
1738874101.915,-41.504,-35.156,-33.203,-26.855,0.000
1738874101.919,-33.691,-32.227,-31.250,-17.090,0.000
1738874101.923,-32.715,-38.574,-29.785,-15.137,0.000
1738874101.927,-39.551,-33.203,-27.344,-19.043,0.000
1738874101.931,-34.180,-27.344,-25.391,-13.672,0.000
1738874101.935,-27.832,-32.227,-23.926,-15.625,0.000
1738874101.939,-28.320,-34.180,-20.508,-17.090,0.000
1738874101.943,-24.902,-31.738,-22.949,-15.137,0.000
1738874101.946,-33.691,-30.273,-22.949,-13.672,0.000
1738874101.950,-41.016,-30.762,-26.855,-19.043,0.000
1738874101.954,-17.090,-38.574,-28.320,-7.812,0.000
1738874101.958,-14.648,-32.715,-27.344,-7.324,0.000
1738874101.962,-36.133,-22.949,-24.414,-22.461,0.000
1738874101.966,-34.180,-34.180,-24.902,-32.715,0.000
1738874101.970,-21.484,-33.691,-26.367,-28.320,0.000
1738874101.974,-27.344,-26.855,-25.879,-9.277,0.000
1738874101.978,-34.180,-29.785,-21.484,-6.348,0.000
1738874101.982,-33.203,-32.715,-18.555,-11.719,0.000
1738874101.986,-29.297,-33.203,-25.391,-22.461,0.000
1738874101.989,-27.344,-30.273,-27.344,-10.254,0.000
1738874101.993,-28.320,-29.785,-26.855,-10.742,0.000
1738874101.997,-25.879,-31.738,-26.855,-26.367,0.000
1738874102.001,-24.414,-37.598,-28.809,-13.672,0.000
1738874102.005,-43.945,-36.133,-29.297,-21.973,0.000
1738874102.009,-45.898,-25.391,-18.555,-29.297,0.000
1738874102.013,-34.668,-25.391,-15.625,-22.461,0.000
1738874102.017,-43.457,-26.855,-17.578,-16.602,0.000
1738874102.021,-44.922,-24.414,-20.996,-19.531,0.000
1738874102.025,-40.527,-22.949,-21.973,-17.578,0.000
1738874102.029,-35.156,-24.414,-21.484,-17.090,0.000
1738874102.032,-44.434,-27.832,-23.926,-27.344,0.000
1738874102.036,-42.969,-27.832,-17.090,-20.508,0.000
1738874102.040,-39.062,-32.227,-15.625,-21.973,0.000
1738874102.044,-42.480,-41.992,-22.461,-8.789,0.000
1738874102.048,-50.781,-33.691,-25.879,-10.742,0.000
1738874102.052,-40.527,-24.902,-25.391,-40.039,0.000
1738874102.056,-34.668,-26.367,-28.809,-33.691,0.000
1738874102.060,-42.480,-28.320,-29.785,-19.531,0.000
1738874102.064,-34.668,-26.855,-24.414,-17.090,0.000
1738874102.068,-38.086,-22.949,-24.902,-29.785,0.000
1738874102.071,-38.086,-25.879,-26.367,-35.645,0.000
1738874102.075,-41.504,-29.785,-28.320,-21.973,0.000
1738874102.079,-52.246,-22.461,-24.414,-26.367,0.000
1738874102.083,-40.039,-23.926,-22.949,-27.344,0.000
1738874102.087,-26.367,-34.668,-23.926,-19.531,0.000
1738874102.091,-25.391,-35.156,-19.531,-16.602,0.000
1738874102.095,-34.668,-25.879,-24.414,-25.391,0.000
1738874102.099,-32.715,-27.344,-25.391,-29.297,0.000
1738874102.103,-23.926,-28.320,-24.902,-28.320,0.000
1738874102.107,-32.715,-22.461,-19.531,-15.137,0.000
1738874102.111,-29.297,-24.414,-20.508,-18.066,0.000
1738874102.114,-17.578,-26.367,-27.832,-28.809,0.000
1738874102.118,-22.461,-23.926,-26.367,-12.695,0.000
1738874102.122,-41.504,-23.926,-26.367,-13.672,0.000
1738874102.126,-24.414,-21.484,-22.461,-15.625,0.000
1738874102.130,-23.438,-25.391,-18.066,-11.230,0.000
1738874102.134,-37.109,-33.691,-19.531,-6.836,0.000
1738874102.138,-42.480,-34.180,-20.508,-1.953,0.000
1738874102.142,-47.363,-32.227,-23.438,-14.160,0.000
1738874102.146,-46.875,-33.691,-27.344,-22.461,0.000
1738874102.150,-42.969,-40.039,-23.438,-20.996,0.000
1738874102.153,-39.062,-36.621,-22.949,-22.949,0.000
1738874102.157,-38.574,-28.809,-26.367,-23.926,0.000
1738874102.161,-43.457,-31.738,-21.484,-19.043,0.000
1738874102.165,-44.434,-33.203,-20.508,-26.367,0.000
1738874102.169,-35.645,-28.320,-21.484,-27.832,0.000
1738874102.173,-45.410,-25.391,-20.996,-19.043,0.000
1738874102.177,-34.180,-29.785,-23.438,-18.066,0.000
1738874102.181,-21.973,-31.250,-24.414,-12.695,0.000
1738874102.185,-38.086,-28.320,-27.832,-23.926,0.000
1738874102.189,-40.527,-20.020,-32.715,-33.203,0.000
1738874102.193,-27.344,-26.367,-27.344,-11.230,0.000
1738874102.196,-29.297,-34.180,-22.461,-12.695,0.000
1738874102.200,-46.387,-30.762,-31.738,-43.457,0.000
1738874102.204,-39.551,-30.762,-31.738,-24.902,0.000
1738874102.208,-12.207,-21.484,-22.949,-6.348,0.000
1738874102.212,-30.273,-19.531,-21.973,-38.574,0.000
1738874102.216,-52.734,-22.949,-26.367,-62.988,0.000
1738874102.220,-43.457,-28.320,-26.367,-53.711,0.000
1738874102.224,-43.457,-29.785,-29.297,-39.062,0.000
1738874102.228,-51.758,-26.855,-32.715,-36.133,0.000
1738874102.232,-53.223,-31.250,-32.715,-46.875,0.000
1738874102.235,-50.781,-31.738,-33.203,-52.246,0.000
1738874102.239,-46.875,-29.785,-31.738,-39.551,0.000
1738874102.243,-44.434,-23.926,-31.250,-34.180,0.000
1738874102.247,-44.922,-21.973,-28.809,-55.176,0.000
1738874102.251,-37.109,-25.879,-28.320,-42.969,0.000
1738874102.255,-35.645,-25.391,-29.785,-24.414,0.000
1738874102.259,-42.969,-25.391,-32.715,-36.621,0.000
1738874102.263,-57.129,-25.391,-38.574,-47.363,0.000
1738874102.267,-56.641,-26.855,-37.109,-43.945,0.000
1738874102.271,-40.039,-27.832,-27.344,-13.672,0.000
1738874102.275,-48.828,-21.484,-21.973,-11.719,0.000
1738874102.278,-47.852,-13.184,-23.926,-35.156,0.000
1738874102.282,-28.320,-19.043,-27.832,-30.273,0.000
1738874102.286,-16.113,-21.484,-26.367,-18.555,0.000
1738874102.290,-28.809,-10.254,-17.090,-14.648,0.000
1738874102.294,-34.180,-12.695,-14.160,-10.254,0.000
1738874102.298,-27.832,-20.508,-15.625,-7.324,0.000
1738874102.302,-23.438,-19.531,-18.066,-16.113,0.000
1738874102.306,-32.715,-21.484,-19.531,-21.973,0.000
1738874102.310,-31.250,-24.414,-22.949,-21.484,0.000
1738874102.314,-38.574,-24.902,-23.926,-20.508,0.000
1738874102.318,-43.945,-27.344,-21.484,-13.184,0.000
1738874102.321,-39.551,-27.344,-25.391,-6.836,0.000
1738874102.325,-29.297,-23.926,-30.273,-9.277,0.000
1738874102.329,-22.461,-27.832,-28.320,-13.672,0.000
1738874102.333,-40.527,-24.414,-27.344,-23.438,0.000
1738874102.337,-34.180,-17.578,-30.273,-38.086,0.000
1738874102.341,-31.738,-25.391,-29.297,-25.391,0.000
1738874102.345,-28.809,-22.949,-28.809,-11.719,0.000
1738874102.349,-27.832,-18.066,-29.785,-17.578,0.000
1738874102.353,-41.992,-23.926,-25.879,-19.043,0.000
1738874102.357,-36.133,-27.344,-26.367,-20.020,0.000
1738874102.360,-22.461,-20.508,-32.715,-14.160,0.000
1738874102.364,-20.508,-24.902,-33.691,-8.789,0.000
1738874102.368,-44.922,-31.250,-31.250,-33.691,0.000
1738874102.372,-44.434,-30.273,-31.738,-29.297,0.000
1738874102.376,-33.203,-29.785,-32.227,-10.254,0.000
1738874102.380,-47.363,-21.484,-34.180,-27.832,0.000
1738874102.384,-35.645,-24.414,-30.273,-30.273,0.000
1738874102.388,-21.973,-21.484,-26.855,-19.531,0.000
1738874102.392,-37.598,-17.090,-28.809,-12.695,0.000
1738874102.396,-42.969,-23.438,-30.762,-6.836,0.000
1738874102.400,-30.273,-25.879,-29.785,-18.066,0.000
1738874102.403,-30.762,-27.344,-31.250,-33.691,0.000
1738874102.407,-36.133,-26.855,-34.180,-17.578,0.000
1738874102.411,-35.156,-29.785,-30.273,-22.461,0.000
1738874102.415,-29.297,-30.762,-27.344,-31.738,0.000
1738874102.419,-32.227,-37.109,-20.020,-5.859,0.000
1738874102.423,-30.762,-35.156,-19.043,-4.883,0.000
1738874102.427,-25.391,-23.438,-23.926,-25.391,0.000
1738874102.431,-20.508,-23.438,-24.414,-9.277,0.000
1738874102.435,-33.691,-29.785,-29.297,-3.906,0.000
1738874102.439,-45.898,-33.203,-27.344,-23.438,0.000
1738874102.443,-29.297,-27.344,-22.949,-24.902,0.000
1738874102.446,-11.719,-28.320,-26.855,-4.883,0.000
1738874102.450,-21.973,-31.738,-26.367,-17.578,0.000
1738874102.454,-39.062,-31.738,-22.949,-27.832,0.000
1738874102.458,-30.273,-35.156,-25.391,-15.625,0.000
1738874102.462,-29.297,-37.109,-24.902,-12.695,0.000
1738874102.466,-32.715,-37.598,-26.855,-11.230,0.000
1738874102.470,-38.574,-29.785,-30.273,-25.879,0.000
1738874102.474,-41.504,-26.855,-28.320,-31.738,0.000
1738874102.478,-34.668,-27.344,-26.855,-12.695,0.000
1738874102.482,-45.898,-21.484,-29.297,-16.113,0.000
1738874102.485,-37.109,-19.531,-31.250,-22.949,0.000
1738874102.489,-35.156,-17.090,-30.762,-16.602,0.000
1738874102.493,-35.156,-14.648,-28.320,-13.672,0.000
1738874102.497,-26.367,-16.113,-29.785,-15.137,0.000
1738874102.501,-41.504,-21.973,-26.855,-19.043,0.000
1738874102.505,-33.203,-26.367,-24.414,-14.648,0.000
1738874102.509,-17.578,-31.250,-28.320,-21.973,0.000
1738874102.513,-37.598,-31.250,-30.273,-28.320,0.000
1738874102.517,-48.340,-23.438,-29.297,-38.086,0.000
1738874102.521,-21.973,-24.414,-27.832,-27.832,0.000
1738874102.525,-27.344,-18.066,-24.414,-15.625,0.000
1738874102.528,-34.668,-17.090,-20.020,-17.578,0.000
1738874102.532,-29.297,-28.809,-20.020,-21.484,0.000
1738874102.536,-37.598,-30.762,-24.902,-21.484,0.000
1738874102.540,-36.133,-25.879,-23.438,-10.254,0.000
1738874102.544,-32.227,-23.926,-19.043,-22.949,0.000
1738874102.548,-31.250,-23.438,-18.066,-24.902,0.000
1738874102.552,-24.414,-29.785,-18.066,-9.766,0.000
1738874102.556,-30.762,-28.320,-18.066,-0.488,0.000
1738874102.560,-44.922,-21.484,-18.066,-9.766,0.000
1738874102.564,-33.691,-20.996,-21.973,-25.391,0.000
1738874102.567,-22.461,-23.438,-19.531,-12.207,0.000
1738874102.571,-32.715,-20.508,-16.113,4.395,0.000
1738874102.575,-36.133,-18.066,-16.602,-2.930,0.000
1738874102.579,-37.109,-21.484,-13.184,-10.254,0.000
1738874102.583,-41.992,-23.926,-10.742,-14.160,0.000
1738874102.587,-27.344,-20.996,-12.695,-16.113,0.000
1738874102.591,-22.949,-14.648,-11.719,-9.277,0.000
1738874102.595,-27.344,-13.672,-10.742,0.488,0.000
1738874102.599,-23.438,-20.020,-16.113,-12.207,0.000
1738874102.603,-26.367,-21.973,-20.020,-21.484,0.000
1738874102.607,-41.504,-16.602,-19.531,-19.531,0.000
1738874102.610,-41.016,-18.066,-18.555,-24.902,0.000
1738874102.614,-28.809,-20.508,-18.555,-27.832,0.000
1738874102.618,-36.133,-25.391,-19.531,-11.719,0.000
1738874102.622,-43.945,-23.438,-19.043,-4.395,0.000
1738874102.626,-30.762,-17.090,-17.090,-22.461,0.000
1738874102.630,-40.039,-18.555,-22.949,-21.973,0.000
1738874102.634,-55.664,-21.484,-24.902,-21.484,0.000
1738874102.638,-47.852,-20.508,-26.855,-22.949,0.000
1738874102.642,-41.504,-18.066,-28.320,-13.184,0.000
1738874102.646,-35.645,-20.996,-23.926,-1.953,0.000
1738874102.650,-30.762,-25.879,-19.531,-25.391,0.000
1738874102.653,-41.504,-28.320,-23.438,-40.527,0.000
1738874102.657,-42.480,-28.809,-26.855,-23.926,0.000
1738874102.661,-40.039,-29.297,-25.391,-12.207,0.000
1738874102.665,-51.270,-25.879,-27.832,-28.320,0.000
1738874102.669,-45.410,-24.414,-24.414,-24.414,0.000
1738874102.673,-46.875,-25.391,-18.066,-14.648,0.000
1738874102.677,-34.668,-17.090,-16.602,-17.578,0.000
1738874102.681,-32.715,-12.207,-19.531,-13.672,0.000
1738874102.685,-43.457,-17.090,-23.438,-17.090,0.000
1738874102.689,-44.434,-17.578,-20.508,-20.020,0.000
1738874102.692,-50.293,-21.484,-20.996,-20.996,0.000
1738874102.696,-52.246,-20.996,-23.438,-22.949,0.000
1738874102.700,-62.012,-20.996,-25.391,-37.109,0.000
1738874102.704,-59.570,-19.531,-24.414,-24.902,0.000
1738874102.708,-49.805,-14.648,-16.113,-6.348,0.000
1738874102.712,-38.574,-17.578,-19.531,-18.555,0.000
1738874102.716,-38.574,-17.090,-28.320,-34.180,0.000
1738874102.720,-38.574,-18.555,-24.414,-25.391,0.000
1738874102.724,-38.574,-14.648,-17.578,-22.949,0.000
1738874102.728,-41.504,-6.836,-15.625,-31.250,0.000
1738874102.732,-38.574,-11.230,-14.160,-31.250,0.000
1738874102.735,-41.016,-16.602,-15.137,-25.879,0.000
1738874102.739,-49.316,-13.184,-13.672,-11.230,0.000
1738874102.743,-53.711,-10.742,-14.160,-15.137,0.000
1738874102.747,-54.688,-21.484,-21.484,-20.508,0.000
1738874102.751,-45.898,-26.367,-25.391,-24.414,0.000
1738874102.755,-53.223,-13.672,-27.832,-43.945,0.000
1738874102.759,-60.059,-3.418,-26.855,-28.809,0.000
1738874102.763,-46.875,-10.742,-25.391,-22.949,0.000
1738874102.767,-35.156,-16.113,-19.531,-28.809,0.000
1738874102.771,-33.691,-13.184,-16.602,-23.926,0.000
1738874102.774,-32.715,-21.484,-20.508,-13.184,0.000
1738874102.778,-34.180,-20.020,-16.113,-6.348,0.000
1738874102.782,-29.297,-16.602,-15.137,-16.602,0.000
1738874102.786,-28.320,-25.391,-18.555,-20.996,0.000
1738874102.790,-37.598,-20.508,-13.184,-10.742,0.000
1738874102.794,-25.391,-19.043,-6.836,5.859,0.000
1738874102.798,-26.855,-22.461,-14.160,-5.371,0.000
1738874102.802,-32.715,-17.090,-15.625,-18.066,0.000
1738874102.806,-27.344,-14.160,-9.766,-11.719,0.000
1738874102.810,-14.648,-12.695,-10.742,-7.324,0.000
1738874102.814,-0.488,-11.230,-8.301,-11.719,0.000
1738874102.817,2.441,-11.230,-8.301,-13.672,0.000
1738874102.821,-5.859,-14.648,-5.371,-4.395,0.000
1738874102.825,-7.812,-14.648,-6.348,-10.742,0.000
1738874102.829,-10.254,-9.277,-15.137,-13.672,0.000
1738874102.833,-22.949,-17.090,-19.531,-10.742,0.000
1738874102.837,-16.113,-25.879,-18.066,-24.902,0.000
1738874102.841,-24.414,-23.926,-22.461,-34.668,0.000
1738874102.845,-32.715,-23.438,-29.785,-26.367,0.000
1738874102.849,-47.852,-26.367,-28.320,-37.598,0.000
1738874102.853,-50.293,-33.691,-24.902,-42.480,0.000
1738874102.856,-25.391,-35.156,-19.531,-19.531,0.000
1738874102.860,-25.879,-24.414,-21.484,-12.207,0.000
1738874102.864,-36.133,-24.902,-24.414,-14.648,0.000
1738874102.868,-39.062,-35.156,-24.902,-17.578,0.000
1738874102.872,-37.598,-33.203,-27.344,-13.672,0.000
1738874102.876,-31.250,-24.902,-24.902,-18.066,0.000
1738874102.880,-27.344,-27.832,-27.344,-20.996,0.000
1738874102.884,-28.320,-34.668,-31.738,-20.996,0.000
1738874102.888,-18.066,-33.691,-32.715,-22.949,0.000
1738874102.892,-20.508,-25.391,-33.691,-26.855,0.000
1738874102.896,-32.715,-20.996,-38.574,-28.320,0.000
1738874102.899,-27.344,-21.484,-34.668,-21.973,0.000
1738874102.903,-29.785,-25.879,-25.879,-23.926,0.000
1738874102.907,-37.598,-27.832,-23.926,-34.180,0.000
1738874102.911,-34.180,-26.855,-24.414,-35.645,0.000
1738874102.915,-33.203,-25.879,-28.809,-30.762,0.000
1738874102.919,-30.762,-23.438,-33.691,-31.250,0.000
1738874102.923,-36.133,-20.996,-34.668,-26.855,0.000
1738874102.927,-36.621,-27.832,-29.297,-10.742,0.000
1738874102.931,-35.645,-30.762,-29.785,-20.020,0.000
1738874102.935,-47.363,-28.809,-36.133,-42.480,0.000
1738874102.939,-40.039,-30.273,-32.715,-33.691,0.000
1738874102.942,-31.738,-34.668,-26.367,-10.742,0.000
1738874102.946,-30.273,-35.645,-31.250,-17.578,0.000
1738874102.950,-26.367,-32.227,-37.598,-26.855,0.000
1738874102.954,-30.762,-29.297,-34.180,-23.438,0.000
1738874102.958,-32.715,-26.855,-30.762,-26.367,0.000
1738874102.962,-42.969,-25.879,-28.320,-33.203,0.000
1738874102.966,-41.504,-25.391,-27.832,-32.227,0.000
1738874102.970,-35.156,-27.832,-25.879,-31.250,0.000
1738874102.974,-35.156,-28.809,-21.973,-21.973,0.000
1738874102.978,-42.480,-34.668,-26.855,-14.160,0.000
1738874102.981,-38.574,-37.109,-25.391,-20.996,0.000
1738874102.985,-36.133,-29.297,-27.344,-29.785,0.000
1738874102.989,-42.969,-25.879,-28.320,-24.414,0.000
1738874102.993,-46.875,-22.461,-25.879,-20.996,0.000
1738874102.997,-42.969,-18.066,-27.832,-38.086,0.000
1738874103.001,-26.855,-20.508,-27.832,-33.691,0.000
1738874103.005,-28.809,-25.391,-24.414,-9.766,0.000
1738874103.009,-48.340,-27.344,-21.973,-10.742,0.000
1738874103.013,-57.129,-26.367,-22.949,-21.484,0.000
1738874103.017,-38.086,-26.855,-16.113,-21.973,0.000
1738874103.021,-29.785,-28.809,-14.160,-22.949,0.000
1738874103.024,-41.992,-24.902,-22.949,-23.926,0.000
1738874103.028,-38.086,-18.066,-23.438,-14.648,0.000
1738874103.032,-37.109,-26.367,-18.555,-3.906,0.000
1738874103.036,-39.551,-34.180,-23.926,-21.484,0.000
1738874103.040,-34.180,-28.809,-28.320,-23.926,0.000
1738874103.044,-22.949,-22.461,-23.438,-5.859,0.000
1738874103.048,-20.508,-23.438,-22.949,-14.648,0.000
1738874103.052,-33.203,-29.297,-21.484,-13.672,0.000
1738874103.056,-37.109,-28.809,-20.508,-4.395,0.000
1738874103.060,-27.832,-25.879,-17.090,-18.066,0.000
1738874103.064,-12.207,-26.367,-14.160,-14.648,0.000
1738874103.067,-8.789,-29.297,-20.508,-9.277,0.000
1738874103.071,-26.855,-23.926,-20.508,-17.090,0.000
1738874103.075,-23.926,-21.973,-19.043,-17.578,0.000
1738874103.079,-20.508,-30.762,-24.902,-2.930,0.000
1738874103.083,-29.785,-28.320,-23.438,-12.207,0.000
1738874103.087,-28.320,-20.020,-22.949,-29.785,0.000
1738874103.091,-32.715,-20.020,-23.438,-25.879,0.000
1738874103.095,-35.156,-17.578,-21.973,-11.230,0.000
1738874103.099,-34.180,-15.137,-22.949,-19.531,0.000
1738874103.103,-25.879,-15.137,-23.926,-32.715,0.000
1738874103.106,-25.879,-17.578,-26.367,-20.996,0.000
1738874103.110,-35.156,-23.438,-30.273,-13.672,0.000
1738874103.114,-32.227,-28.320,-33.203,-29.785,0.000
1738874103.118,-34.180,-26.367,-29.297,-32.715,0.000
1738874103.122,-30.273,-26.367,-23.438,-21.484,0.000
1738874103.126,-31.250,-26.855,-23.926,-21.484,0.000
1738874103.130,-40.039,-24.414,-27.344,-23.438,0.000
1738874103.134,-34.180,-23.926,-27.344,-26.855,0.000
1738874103.138,-36.133,-29.297,-21.973,-25.391,0.000
1738874103.142,-33.203,-29.785,-24.902,-20.020,0.000
1738874103.146,-47.852,-21.484,-29.785,-29.297,0.000
1738874103.149,-46.875,-23.926,-25.391,-45.410,0.000
1738874103.153,-41.504,-29.297,-23.438,-45.410,0.000
1738874103.157,-42.480,-24.902,-21.484,-25.879,0.000
1738874103.161,-24.902,-19.043,-13.672,-10.742,0.000
1738874103.165,-28.320,-26.855,-14.160,-18.555,0.000
1738874103.169,-31.738,-36.621,-22.461,-20.020,0.000
1738874103.173,-30.762,-30.762,-26.855,-22.461,0.000
1738874103.177,-39.551,-22.949,-25.879,-31.250,0.000
1738874103.181,-46.387,-21.973,-25.391,-30.762,0.000
1738874103.185,-37.598,-24.414,-27.344,-34.668,0.000
1738874103.189,-40.039,-22.949,-27.344,-30.762,0.000
1738874103.192,-48.340,-16.113,-27.344,-37.109,0.000
1738874103.196,-34.668,-14.160,-22.461,-32.715,0.000
1738874103.200,-45.410,-21.484,-21.484,-22.461,0.000
1738874103.204,-47.852,-23.438,-29.297,-24.414,0.000
1738874103.208,-28.809,-22.461,-27.344,-23.926,0.000
1738874103.212,-15.137,-27.832,-26.855,-15.137,0.000
1738874103.216,-22.461,-27.832,-31.250,-18.066,0.000
1738874103.220,-36.621,-18.555,-28.809,-28.320,0.000
1738874103.224,-26.855,-17.090,-25.391,-22.461,0.000
1738874103.228,-25.879,-22.949,-22.461,-2.930,0.000
1738874103.231,-29.297,-23.438,-19.043,-9.766,0.000
1738874103.235,-37.109,-19.043,-27.344,-12.207,0.000
1738874103.239,-37.598,-18.555,-28.320,-5.371,0.000
1738874103.243,-30.273,-13.184,-28.809,-24.902,0.000
1738874103.247,-32.715,-12.207,-34.668,-28.809,0.000
1738874103.251,-25.391,-11.719,-31.738,-25.879,0.000
1738874103.255,-13.672,-8.789,-19.531,-4.883,0.000
1738874103.259,-17.578,-16.602,-14.648,14.648,0.000
1738874103.263,-32.227,-16.113,-18.555,-8.301,0.000
1738874103.267,-42.480,-10.254,-18.066,-33.203,0.000
1738874103.271,-35.156,-14.648,-19.531,-17.090,0.000
1738874103.274,-35.156,-19.043,-17.090,-8.301,0.000
1738874103.278,-33.203,-20.020,-17.090,-16.113,0.000
1738874103.282,-39.062,-19.043,-20.508,-13.184,0.000
1738874103.286,-45.898,-20.020,-17.090,-32.715,0.000
1738874103.290,-53.711,-21.973,-20.508,-48.340,0.000
1738874103.294,-52.246,-9.277,-19.531,-31.250,0.000
