timestamps,TP9,AF7,AF8,TP10,Right AUX
1735836597.181,0.000,40.039,12.695,16.602,46.875
1735836597.184,20.020,42.969,32.227,83.496,80.078
1735836597.188,39.551,43.457,46.875,91.309,82.520
1735836597.192,41.992,42.969,50.781,49.316,85.938
1735836597.196,52.246,42.480,57.129,4.883,57.129
1735836597.200,63.965,35.645,44.434,49.316,44.922
1735836597.204,44.434,49.316,43.457,93.262,20.020
1735836597.208,20.020,53.223,36.133,21.484,-21.484
1735836597.212,26.367,32.715,16.602,-15.625,5.859
1735836597.216,26.855,30.762,28.809,30.273,38.574
1735836597.220,27.344,39.062,37.598,83.008,37.598
1735836597.224,39.062,47.852,41.504,69.336,13.184
1735836597.227,38.574,41.016,35.156,26.367,41.504
1735836597.231,37.598,35.645,32.227,39.062,62.012
1735836597.235,29.785,32.715,32.715,83.496,59.570
1735836597.239,23.438,32.715,40.039,77.637,56.152
1735836597.243,39.551,31.738,45.410,20.508,24.902
1735836597.247,41.992,36.621,36.133,12.695,26.367
1735836597.251,39.062,43.945,24.414,62.988,32.227
1735836597.255,26.855,39.551,15.137,63.965,22.949
1735836597.259,41.504,48.828,20.996,67.871,19.531
1735836597.263,66.406,54.688,32.227,42.480,28.320
1735836597.266,51.758,32.715,13.184,66.406,57.129
1735836597.270,74.219,36.133,14.160,115.723,52.734
1735836597.274,68.848,34.180,38.086,54.688,53.223
1735836597.278,21.973,30.273,54.199,24.414,42.480
1735836597.282,36.621,30.762,46.875,46.387,32.227
1735836597.286,35.156,25.879,29.785,66.895,48.340
1735836597.290,30.762,35.156,22.949,61.035,42.480
1735836597.294,41.992,36.133,21.973,20.996,18.555
1735836597.298,36.621,24.902,31.738,16.113,23.926
1735836597.302,12.207,22.949,29.297,56.641,58.105
1735836597.306,12.695,28.809,25.391,66.895,53.711
1735836597.309,25.391,30.762,29.785,27.344,32.715
1735836597.313,48.828,31.738,32.715,-4.395,34.668
1735836597.317,68.359,41.016,36.621,49.805,20.020
1735836597.321,32.715,39.062,31.738,59.570,13.184
1735836597.325,19.043,30.762,29.297,27.832,16.113
1735836597.329,23.438,32.715,36.621,-5.859,10.742
1735836597.333,52.734,34.180,26.367,28.809,27.832
1735836597.337,62.012,37.598,21.973,95.215,27.832
1735836597.341,35.645,41.992,30.273,61.035,23.926
1735836597.345,41.016,39.551,40.527,23.926,24.414
1735836597.349,24.414,27.344,34.180,34.180,44.922
1735836597.352,34.180,44.434,39.062,77.148,50.781
1735836597.356,63.477,54.688,52.246,61.523,20.508
1735836597.360,54.688,37.598,45.410,7.812,11.230
1735836597.364,32.715,39.062,39.062,24.902,35.645
1735836597.368,35.156,38.574,31.250,55.176,62.500
1735836597.372,51.758,44.922,28.809,60.059,47.363
1735836597.376,28.809,47.363,31.738,53.223,33.203
1735836597.380,22.461,40.039,32.227,38.574,49.316
1735836597.384,35.156,40.039,34.668,86.914,55.176
1735836597.388,28.320,39.062,41.504,85.938,20.508
1735836597.391,29.297,46.875,44.922,19.531,3.906
1735836597.395,39.551,42.480,31.250,1.953,38.086
1735836597.399,19.043,27.344,14.160,31.250,61.035
1735836597.403,29.785,35.645,21.973,70.312,52.734
1735836597.407,42.969,44.434,34.180,54.688,54.688
1735836597.411,37.109,50.293,46.387,11.230,39.551
1735836597.415,35.645,34.180,46.387,20.996,22.461
1735836597.419,23.926,25.879,33.691,76.172,20.020
1735836597.423,30.762,36.133,25.879,92.285,20.508
1735836597.427,62.988,49.316,32.715,44.434,28.320
1735836597.431,62.012,63.965,40.527,36.133,25.391
1735836597.434,20.020,55.664,32.227,97.656,29.297
1735836597.438,23.438,46.387,31.738,83.496,26.367
1735836597.442,61.523,33.691,27.344,24.414,26.855
1735836597.446,69.336,43.457,43.457,1.465,27.832
1735836597.450,36.621,64.941,57.129,40.527,7.324
1735836597.454,11.719,39.062,32.715,82.520,22.949
1735836597.458,10.742,22.949,26.855,68.359,43.945
1735836597.462,30.273,31.738,27.832,22.461,39.062
1735836597.466,41.016,39.551,33.203,25.879,43.945
1735836597.470,25.879,45.410,46.875,79.590,22.949
1735836597.474,19.531,38.086,44.434,81.055,10.254
1735836597.477,28.809,40.039,36.621,31.738,29.297
1735836597.481,37.598,45.898,42.480,42.969,53.223
1735836597.485,64.941,57.617,54.688,77.148,44.922
1735836597.489,68.359,55.176,50.293,53.223,28.320
1735836597.493,25.391,26.367,39.551,20.020,66.406
1735836597.497,20.508,20.996,46.875,37.109,79.590
1735836597.501,35.156,24.414,45.410,97.168,68.848
1735836597.505,47.363,41.016,48.340,96.191,31.738
1735836597.509,41.992,46.875,44.434,68.359,18.555
1735836597.513,29.785,44.434,38.086,38.574,31.738
1735836597.516,46.875,41.016,43.457,50.781,34.180
1735836597.520,56.152,48.828,44.434,89.355,39.062
1735836597.524,47.852,62.012,43.945,51.758,40.039
1735836597.528,33.691,46.875,56.152,17.090,39.551
1735836597.532,42.969,36.621,54.688,63.477,47.363
1735836597.536,50.781,38.086,42.969,81.543,48.828
1735836597.540,33.203,49.805,47.363,64.453,26.855
1735836597.544,28.809,53.223,48.828,22.461,6.836
1735836597.548,12.207,39.062,37.598,10.742,43.457
1735836597.552,27.832,43.457,40.527,66.406,69.824
1735836597.556,40.527,45.410,45.410,62.500,34.180
1735836597.559,35.645,45.410,49.316,39.062,3.906
1735836597.563,39.062,40.039,41.504,32.715,25.879
1735836597.567,56.641,23.438,24.414,51.270,47.363
1735836597.571,49.316,34.180,35.156,68.359,37.109
1735836597.575,2.441,53.223,43.457,52.734,42.480
1735836597.579,16.602,57.617,58.594,36.621,23.926
1735836597.583,32.227,41.016,53.223,40.039,-2.930
1735836597.587,23.926,31.250,26.367,64.453,40.039
1735836597.591,35.156,41.992,28.809,72.754,46.387
1735836597.595,51.758,41.992,32.715,41.504,29.297
1735836597.599,56.152,28.320,35.645,40.527,48.340
1735836597.602,29.297,23.926,46.387,64.941,47.852
1735836597.606,24.902,40.039,45.410,65.918,38.086
1735836597.610,39.551,48.828,32.715,28.809,28.320
1735836597.614,20.020,48.828,43.457,24.414,30.762
1735836597.618,45.898,46.875,55.664,64.453,26.367
1735836597.622,55.176,47.363,48.340,67.383,15.625
1735836597.626,40.039,50.293,49.805,51.270,9.277
1735836597.630,29.785,36.621,44.434,30.762,11.719
1735836597.634,21.484,34.180,42.969,76.660,25.391
1735836597.638,39.551,41.504,49.316,85.938,25.391
1735836597.641,40.527,32.715,42.969,13.184,27.832
1735836597.645,60.547,36.133,44.922,-4.883,31.250
1735836597.649,49.805,42.969,36.133,36.621,44.922
1735836597.653,58.105,54.688,37.598,88.379,41.992
1735836597.657,63.965,53.711,46.875,48.340,6.836
1735836597.661,14.160,39.062,42.969,-27.832,17.578
1735836597.665,9.766,45.898,48.828,27.832,34.180
1735836597.669,23.926,45.410,45.410,93.750,41.504
1735836597.673,33.203,50.293,54.688,71.777,37.109
1735836597.677,25.879,47.363,51.270,0.488,7.812
1735836597.681,35.156,25.391,30.273,-20.996,9.277
1735836597.684,25.391,20.508,26.367,55.664,41.992
1735836597.688,9.277,34.180,32.715,76.172,35.156
1735836597.692,37.109,41.504,36.133,58.594,11.230
1735836597.696,28.320,29.785,26.367,17.578,38.086
1735836597.700,33.691,28.809,28.320,26.855,49.805
1735836597.704,58.105,36.621,35.645,85.938,31.250
1735836597.708,49.805,40.527,31.250,53.711,22.949
1735836597.712,11.230,41.016,27.832,3.906,41.504
1735836597.716,10.742,39.551,40.039,15.625,39.551
1735836597.720,25.391,35.156,42.480,52.246,53.223
1735836597.723,36.621,36.133,42.480,57.129,35.645
1735836597.727,43.457,48.340,47.363,34.668,23.926
1735836597.731,39.062,50.293,45.410,36.621,26.855
1735836597.735,29.785,26.367,25.391,54.199,44.922
1735836597.739,43.945,34.668,24.902,64.453,68.848
1735836597.743,49.805,45.410,38.574,60.547,47.363
1735836597.747,29.297,47.363,36.133,29.785,43.945
1735836597.751,20.996,49.805,25.391,62.988,46.387
1735836597.755,17.090,41.504,23.926,62.500,47.363
1735836597.759,26.855,37.598,35.645,-0.488,19.531
1735836597.763,50.293,37.598,39.551,-8.789,-1.465
1735836597.766,52.246,40.039,45.410,30.273,15.625
1735836597.770,35.156,39.062,39.551,63.965,18.555
1735836597.774,17.090,32.227,26.367,23.926,6.836
1735836597.778,23.438,35.645,36.133,-8.301,-2.441
1735836597.782,33.691,34.180,29.297,32.227,35.645
1735836597.786,47.852,36.621,29.297,76.172,55.664
1735836597.790,23.926,25.879,33.691,74.219,41.992
1735836597.794,4.395,29.785,30.762,15.625,17.578
1735836597.798,21.973,41.504,29.785,-4.883,16.602
1735836597.802,33.203,36.133,25.879,64.941,49.805
1735836597.806,27.344,39.062,28.809,83.496,65.918
1735836597.809,44.922,42.480,36.133,31.250,42.969
1735836597.813,36.133,28.320,33.203,-1.465,39.062
1735836597.817,28.320,14.160,19.531,37.598,62.988
1735836597.821,39.062,39.551,34.180,69.824,49.805
1735836597.825,32.227,51.270,51.270,50.293,6.348
1735836597.829,22.461,30.273,33.203,13.184,26.367
1735836597.833,10.254,29.297,25.391,1.953,57.129
1735836597.837,12.207,34.180,33.691,40.527,51.270
1735836597.841,23.438,41.992,40.039,55.176,36.621
1735836597.845,25.879,53.223,37.109,30.762,33.203
1735836597.848,24.414,42.969,37.109,35.156,57.129
1735836597.852,50.781,40.527,41.016,62.988,63.965
1735836597.856,66.895,41.992,32.227,63.965,48.340
1735836597.860,48.340,41.016,40.527,48.340,17.090
1735836597.864,23.926,34.668,42.480,33.203,30.273
1735836597.868,-2.441,27.344,30.273,54.688,63.477
1735836597.872,11.230,41.504,37.109,67.383,61.035
1735836597.876,27.344,51.758,38.086,32.715,54.199
1735836597.880,34.668,54.688,41.504,24.414,57.129
1735836597.884,39.062,49.805,38.574,50.781,42.969
1735836597.888,45.410,38.574,35.645,67.871,40.039
1735836597.891,33.203,36.621,39.551,37.598,31.250
1735836597.895,28.320,42.480,34.668,16.602,16.602
1735836597.899,34.180,35.156,20.508,43.945,47.852
1735836597.903,42.969,26.855,24.902,73.730,74.219
1735836597.907,53.223,39.062,43.457,62.012,26.855
1735836597.911,20.996,44.434,35.156,21.973,14.648
1735836597.915,28.809,38.086,27.344,39.062,27.344
1735836597.919,32.227,41.504,36.621,74.707,7.812
1735836597.923,-2.441,40.039,32.227,51.758,15.625
1735836597.927,12.695,41.992,30.273,2.441,13.184
1735836597.931,32.715,41.992,35.156,-7.324,17.578
1735836597.934,43.945,41.504,43.457,51.758,27.344
1735836597.938,31.738,40.039,48.828,69.336,25.391
1735836597.942,28.320,33.203,38.574,35.156,20.020
1735836597.946,41.504,37.598,28.320,29.297,30.273
1735836597.950,41.016,47.852,25.879,71.777,43.457
1735836597.954,54.199,59.570,37.598,94.727,8.789
1735836597.958,52.246,59.570,41.504,47.852,-5.371
1735836597.962,33.691,46.875,24.414,8.789,31.738
1735836597.966,26.367,40.527,29.297,17.090,42.969
1735836597.970,29.297,42.480,50.293,45.410,32.715
1735836597.973,38.086,53.711,49.805,77.637,8.789
1735836597.977,34.668,53.711,44.434,36.133,-0.488
1735836597.981,43.457,41.992,35.645,20.508,35.156
1735836597.985,36.133,40.527,31.738,66.895,64.941
1735836597.989,29.297,56.152,42.480,60.547,45.898
1735836597.993,86.426,54.688,43.945,38.086,23.438
1735836597.997,76.660,49.805,44.922,39.062,25.879
1735836598.001,3.906,48.340,39.062,100.586,52.734
1735836598.005,5.371,45.898,36.133,77.637,54.688
1735836598.009,34.668,55.176,52.734,13.184,14.160
1735836598.013,47.363,62.500,54.688,6.836,-0.488
1735836598.016,29.785,49.316,26.367,25.391,25.391
1735836598.020,41.992,49.316,26.367,78.125,40.527
1735836598.024,66.895,49.805,39.062,55.176,28.809
1735836598.028,66.895,53.223,49.316,-6.348,24.414
1735836598.032,50.293,48.828,31.250,28.320,41.016
1735836598.036,41.016,35.156,19.043,82.031,61.523
1735836598.040,29.297,43.945,47.852,89.844,39.551
1735836598.044,23.926,46.387,48.340,40.527,25.391
1735836598.048,31.250,45.898,50.781,8.789,16.602
1735836598.052,11.719,39.062,50.293,52.246,-2.930
1735836598.055,-2.441,32.227,29.785,49.316,24.902
1735836598.059,27.832,41.504,34.180,25.879,34.668
1735836598.063,45.898,34.668,40.039,25.879,59.082
1735836598.067,34.668,36.133,39.551,59.570,66.406
1735836598.071,36.133,44.922,32.715,76.172,33.203
1735836598.075,39.551,43.457,31.250,39.062,35.156
1735836598.079,28.320,43.945,34.180,15.137,47.852
1735836598.083,44.434,42.969,30.273,40.039,58.594
1735836598.087,20.996,41.016,37.109,68.359,36.133
1735836598.091,11.230,45.410,49.805,65.430,23.926
1735836598.095,38.574,49.316,44.434,16.602,21.973
1735836598.098,23.438,35.645,30.762,9.766,46.875
1735836598.102,34.668,36.133,39.062,57.617,62.012
1735836598.106,61.523,54.688,47.363,49.316,18.066
1735836598.110,31.738,40.527,26.855,25.391,19.043
1735836598.114,18.066,39.551,30.273,20.996,42.480
1735836598.118,38.574,42.969,34.668,54.199,66.895
1735836598.122,56.641,46.875,36.621,42.480,39.551
1735836598.126,59.570,43.945,42.480,4.395,-1.953
1735836598.130,32.227,36.621,38.086,5.859,29.297
1735836598.134,0.488,41.504,38.574,49.316,37.109
1735836598.138,20.996,45.410,33.691,98.633,23.438
1735836598.141,49.805,47.852,32.715,51.270,0.977
1735836598.145,28.809,37.109,28.809,-8.301,14.160
1735836598.149,20.020,27.832,22.461,26.367,59.570
1735836598.153,17.090,35.645,31.738,96.191,60.059
1735836598.157,23.438,44.434,42.969,84.473,43.945
1735836598.161,47.852,53.711,54.199,2.930,21.484
1735836598.165,41.992,48.340,40.039,0.977,29.785
1735836598.169,62.500,40.527,23.438,73.730,46.387
1735836598.173,70.801,44.922,34.180,81.055,0.000
1735836598.177,32.227,38.574,43.945,47.852,9.766
1735836598.180,19.531,28.809,39.551,25.879,44.922
1735836598.184,22.949,28.809,30.762,55.664,29.785
1735836598.188,28.809,33.691,30.273,74.219,37.598
1735836598.192,38.574,26.367,28.809,39.062,32.227
1735836598.196,48.340,26.367,35.156,20.508,45.410
1735836598.200,49.316,41.016,41.016,34.180,51.270
1735836598.204,32.227,39.551,39.062,60.547,33.203
1735836598.208,17.578,33.691,35.645,56.641,38.574
1735836598.212,14.648,40.527,34.180,41.016,32.227
1735836598.216,18.066,39.551,33.691,46.387,33.691
1735836598.220,17.578,33.691,27.344,33.691,23.438
1735836598.223,33.203,30.762,25.391,22.461,21.484
1735836598.227,56.152,37.598,32.715,13.184,45.898
1735836598.231,53.223,42.969,30.273,31.250,45.410
1735836598.235,34.668,43.945,33.203,94.727,32.227
1735836598.239,12.207,41.992,32.715,65.430,15.625
1735836598.243,8.301,32.715,21.973,5.859,19.531
1735836598.247,21.484,29.785,21.484,4.395,31.738
1735836598.251,24.902,21.973,17.578,55.664,56.152
1735836598.255,36.621,24.902,25.879,97.168,58.105
1735836598.259,55.664,35.156,32.715,53.711,28.320
1735836598.263,36.621,42.969,35.645,6.348,41.016
1735836598.266,17.578,43.457,30.273,37.598,76.172
1735836598.270,14.648,43.945,41.504,71.777,43.457
1735836598.274,21.973,39.062,44.922,55.664,15.625
1735836598.278,50.293,35.645,43.945,14.648,17.578
1735836598.282,50.293,40.039,41.992,24.902,16.113
1735836598.286,20.996,36.621,28.320,82.031,58.594
1735836598.290,18.555,41.992,38.574,80.566,45.410
1735836598.294,50.293,49.805,48.828,35.645,-5.371
1735836598.298,62.012,42.480,37.109,-3.906,7.324
1735836598.302,29.297,41.504,33.203,36.133,13.184
1735836598.305,16.113,43.945,34.668,66.895,17.090
1735836598.309,29.297,51.270,41.504,48.340,16.602
1735836598.313,25.391,52.246,43.457,22.461,23.926
1735836598.317,30.762,46.875,42.480,41.016,37.598
1735836598.321,45.898,47.363,47.852,72.754,0.977
1735836598.325,61.035,39.062,52.734,53.711,-8.301
1735836598.329,89.355,45.898,61.523,37.598,9.277
1735836598.333,49.316,47.852,54.688,30.273,4.883
1735836598.337,-17.090,39.062,43.457,42.969,22.461
1735836598.341,6.348,48.340,53.711,71.777,25.879
1735836598.345,23.438,56.641,56.641,61.523,29.297
1735836598.348,29.297,54.199,52.734,62.988,60.059
1735836598.352,22.461,41.016,46.875,53.223,75.195
1735836598.356,-25.879,42.480,55.176,10.742,36.621
1735836598.360,-27.344,45.410,62.988,-4.395,17.578
1735836598.364,-28.320,39.551,56.152,11.230,43.457
1735836598.368,-51.758,41.016,63.965,49.316,35.645
1735836598.372,-43.457,45.410,75.195,4.395,12.695
1735836598.376,-19.531,48.828,76.660,-62.012,0.000
1735836598.380,-69.824,40.039,62.988,-58.105,14.648
1735836598.384,-126.953,36.133,59.082,-32.715,26.367
1735836598.387,-98.633,40.527,77.148,-6.836,3.906
1735836598.391,-102.051,16.113,72.754,-40.039,0.000
1735836598.395,-134.766,20.020,56.641,-81.543,21.484
1735836598.399,-142.578,20.020,60.059,-41.016,55.176
1735836598.403,-144.043,21.484,75.195,9.766,56.152
1735836598.407,-144.043,39.551,66.895,-28.809,31.250
1735836598.411,-156.738,34.180,52.734,-93.262,45.898
1735836598.415,-149.902,33.203,56.641,-78.125,71.777
1735836598.419,-92.773,36.621,73.242,-4.395,50.293
1735836598.423,-105.957,48.340,83.984,-0.488,15.137
1735836598.427,-165.527,39.551,66.895,-37.109,20.996
1735836598.430,-148.926,22.461,59.082,-67.871,36.133
1735836598.434,-113.281,31.738,75.684,-33.691,22.461
1735836598.438,-112.793,35.156,76.172,7.812,15.625
1735836598.442,-101.562,36.621,75.684,-19.043,3.418
1735836598.446,-102.051,31.250,66.895,-37.109,11.719
1735836598.450,-105.957,33.203,61.035,-14.648,33.691
1735836598.454,-105.957,29.297,69.824,2.930,44.922
1735836598.458,-86.914,27.344,71.289,2.441,27.344
1735836598.462,-80.566,37.109,73.730,-37.598,16.602
1735836598.466,-97.168,41.016,86.426,-24.902,18.555
1735836598.470,-85.449,42.480,83.984,10.254,35.156
1735836598.473,-101.074,35.645,82.031,-20.508,30.762
1735836598.477,-79.102,42.969,83.496,-59.570,17.578
1735836598.481,-21.973,57.617,81.543,-46.387,4.395
1735836598.485,-85.938,40.527,74.707,-1.953,31.250
1735836598.489,-117.676,32.227,73.730,-25.879,48.828
1735836598.493,-84.473,46.387,69.824,-58.594,16.113
1735836598.497,-89.844,48.828,73.730,-38.574,34.668
1735836598.501,-85.938,36.621,71.777,-3.906,36.133
1735836598.505,-68.359,30.762,67.871,19.043,41.992
1735836598.509,-50.293,45.410,83.984,-22.461,46.387
1735836598.512,-69.824,58.105,86.426,-66.406,11.230
1735836598.516,-48.340,54.199,94.727,-22.461,22.461
1735836598.520,-32.715,50.781,85.449,-1.953,29.297
1735836598.524,-83.984,40.527,62.988,-25.391,32.715
1735836598.528,-29.297,41.016,85.938,-57.129,17.090
1735836598.532,-12.207,43.945,86.426,-26.367,18.066
1735836598.536,-91.797,48.340,74.219,35.645,38.574
1735836598.540,-98.633,50.781,81.543,19.043,36.621
1735836598.544,-72.754,52.734,87.402,-7.812,49.316
1735836598.548,-61.523,64.941,90.820,-14.160,59.570
1735836598.552,-50.781,64.453,91.797,56.641,41.504
1735836598.555,-43.945,51.758,93.750,88.379,28.320
1735836598.559,-27.832,51.270,97.656,51.758,6.836
1735836598.563,-18.066,55.176,94.238,43.945,19.531
1735836598.567,-21.973,54.199,89.355,72.266,62.988
1735836598.571,0.488,66.406,100.586,111.816,36.133
1735836598.575,1.953,79.102,119.141,92.773,8.789
1735836598.579,-22.949,77.637,114.746,43.457,29.785
1735836598.583,-20.508,83.496,112.305,61.035,39.062
1735836598.587,-20.508,74.707,113.770,83.984,38.574
1735836598.591,-0.488,75.684,118.164,51.758,18.555
1735836598.595,30.762,71.777,115.723,8.301,11.719
1735836598.598,-28.320,44.434,93.262,4.883,42.969
1735836598.602,-35.156,41.504,99.609,24.902,63.965
1735836598.606,-13.184,55.664,114.258,-19.531,23.926
1735836598.610,0.977,60.059,108.398,-52.734,-11.230
1735836598.614,18.066,49.316,95.215,-75.684,10.254
1735836598.618,-5.859,28.320,78.613,-67.871,46.387
1735836598.622,-7.324,21.973,76.660,-61.523,54.688
1735836598.626,0.000,26.367,89.844,-108.398,46.387
1735836598.630,7.324,21.973,94.727,-152.344,49.316
1735836598.634,11.230,17.090,73.730,-124.512,57.617
1735836598.637,26.855,24.902,72.754,-92.285,65.430
1735836598.641,65.918,30.762,85.449,-105.469,59.082
1735836598.645,44.922,35.156,89.844,-146.484,40.527
1735836598.649,20.020,32.715,100.586,-135.254,31.250
1735836598.653,53.223,22.949,99.121,-86.914,28.320
1735836598.657,78.613,12.207,84.961,-122.070,-2.441
1735836598.661,27.344,-2.441,72.754,-191.895,8.301
1735836598.665,17.578,5.371,73.242,-197.754,25.879
1735836598.669,63.477,26.367,72.754,-127.930,-6.836
1735836598.673,38.086,5.859,58.105,-102.539,20.508
1735836598.677,23.438,-4.395,57.617,-126.465,49.316
1735836598.680,47.363,-1.465,56.641,-157.715,40.039
1735836598.684,66.406,-3.906,46.387,-104.980,33.203
1735836598.688,77.148,-0.977,45.898,-65.430,45.898
1735836598.692,75.195,10.254,45.410,-90.332,41.016
1735836598.696,77.637,21.484,42.480,-97.168,27.344
1735836598.700,94.727,17.578,38.574,-75.195,41.504
1735836598.704,112.793,11.230,36.133,-31.738,26.367
1735836598.708,84.961,8.301,36.621,-39.551,20.508
1735836598.712,87.891,0.488,10.254,-86.914,27.344
1735836598.716,95.703,-2.441,-3.418,-44.922,56.641
1735836598.719,95.703,1.953,19.043,7.812,51.270
1735836598.723,105.469,11.230,29.297,8.789,32.715
1735836598.727,104.004,17.578,23.438,5.859,35.645
1735836598.731,106.934,19.043,17.090,6.348,40.039
1735836598.735,113.770,19.531,5.371,62.012,38.086
1735836598.739,135.742,20.996,0.977,83.008,27.344
1735836598.743,144.531,27.344,0.977,60.059,6.348
1735836598.747,146.484,23.438,-4.883,61.035,4.395
1735836598.751,191.895,16.602,-4.395,113.281,50.293
1735836598.755,180.664,21.484,-4.395,167.480,70.801
1735836598.759,146.484,37.109,5.859,149.902,47.363
1735836598.762,149.414,46.387,14.160,111.816,2.441
1735836598.766,151.367,25.391,-3.906,145.508,14.648
1735836598.770,194.336,31.738,-3.906,214.355,46.387
1735836598.774,191.406,41.992,-2.930,213.867,41.504
1735836598.778,165.527,29.785,-2.930,177.734,38.086
1735836598.782,171.387,28.809,1.465,194.336,46.875
1735836598.786,156.738,32.227,-6.348,237.305,33.203
1735836598.790,155.273,36.621,-2.441,223.633,15.137
1735836598.794,170.410,36.621,-1.465,192.871,15.137
1735836598.798,207.520,38.086,8.789,194.336,17.578
1735836598.802,182.617,37.598,3.906,215.332,21.484
1735836598.805,113.770,28.809,-14.648,219.727,62.988
1735836598.809,125.000,25.879,-4.883,186.035,58.594
1735836598.813,134.277,32.227,1.465,169.922,61.523
1735836598.817,116.211,39.551,4.395,199.219,86.426
1735836598.821,137.695,40.039,6.836,207.520,66.406
1735836598.825,148.438,48.340,13.184,212.891,44.922
1735836598.829,144.531,49.316,21.973,190.918,37.109
1735836598.833,148.926,50.781,10.254,204.102,52.734
1735836598.837,118.652,45.410,13.672,204.590,55.176
1735836598.841,153.320,36.621,26.855,190.918,40.527
1735836598.844,151.855,47.852,26.855,175.293,30.273
1735836598.848,83.008,45.898,28.809,140.625,33.203
1735836598.852,82.520,42.969,30.273,197.266,41.016
1735836598.856,86.914,45.898,40.039,176.758,7.812
1735836598.860,75.195,34.668,24.902,101.562,-5.371
1735836598.864,96.191,35.645,15.625,108.887,11.230
1735836598.868,57.617,35.645,19.531,161.133,42.480
1735836598.872,15.137,41.992,37.109,184.082,57.617
1735836598.876,28.809,49.316,46.387,122.070,40.039
1735836598.880,-4.395,41.992,35.156,64.453,45.898
1735836598.884,-60.059,42.969,35.645,94.238,59.082
1735836598.887,-49.316,50.781,48.340,142.090,44.434
1735836598.891,-57.129,67.871,64.941,109.863,4.883
1735836598.895,-82.031,78.613,58.594,31.250,-14.160
1735836598.899,-90.332,69.336,49.805,37.598,41.992
1735836598.903,-94.238,76.660,53.223,82.031,63.965
1735836598.907,-90.332,90.332,61.035,64.453,12.695
1735836598.911,-84.473,94.238,61.523,24.414,8.301
1735836598.915,-118.164,99.121,61.035,18.555,18.066
1735836598.919,-134.766,95.215,49.316,81.055,30.762
1735836598.923,-98.145,93.750,60.059,118.652,48.340
1735836598.927,-101.074,103.027,74.219,106.934,34.180
1735836598.930,-90.332,123.535,76.660,113.770,22.461
1735836598.934,-86.426,129.395,79.102,131.348,28.320
1735836598.938,-72.266,125.488,90.820,155.762,25.391
1735836598.942,-74.219,118.652,97.168,158.203,32.227
1735836598.946,-92.285,122.559,101.074,151.855,32.227
1735836598.950,-69.824,130.371,104.004,190.918,34.668
1735836598.954,-65.430,116.211,94.727,234.863,46.387
1735836598.958,-66.895,118.164,94.238,246.094,32.715
1735836598.962,-46.875,123.535,86.914,205.078,54.199
1735836598.966,-22.949,138.672,87.402,187.012,58.594
1735836598.969,-44.434,146.484,84.961,212.402,66.406
1735836598.973,-10.254,143.555,92.773,163.574,52.734
1735836598.977,-9.277,141.602,108.887,83.008,-3.418
1735836598.981,-35.156,127.441,101.562,67.383,30.273
1735836598.985,-12.695,117.676,98.633,119.629,41.504
1735836598.989,-39.551,111.816,91.309,78.613,5.859
1735836598.993,-21.973,103.516,75.195,-36.133,6.348
1735836598.997,-19.043,104.492,82.031,-83.496,14.648
1735836599.001,-47.852,92.773,74.707,-71.777,51.270
1735836599.005,-56.641,85.938,74.219,-67.871,43.945
1735836599.009,-26.855,95.215,73.730,-125.000,41.992
1735836599.012,21.484,93.262,68.359,-188.965,34.180
1735836599.016,-16.602,75.684,64.941,-170.898,32.715
1735836599.020,-28.320,72.754,54.688,-150.879,57.617
1735836599.024,0.977,84.961,64.453,-167.480,61.523
1735836599.028,20.996,82.031,81.055,-219.727,46.387
1735836599.032,22.461,72.266,62.988,-242.676,20.508
1735836599.036,-14.648,51.758,31.738,-180.176,24.414
1735836599.040,1.465,57.129,46.875,-167.969,25.391
1735836599.044,49.316,63.477,62.012,-177.246,3.418
1735836599.048,20.508,19.043,18.066,-212.891,11.230
1735836599.051,32.715,10.254,4.395,-218.750,41.504
1735836599.055,63.477,17.090,20.508,-168.457,43.457
1735836599.059,86.426,37.598,35.645,-188.477,26.855
1735836599.063,75.684,57.617,32.715,-221.191,14.160
1735836599.067,12.207,35.156,16.113,-204.102,29.297
1735836599.071,44.434,30.273,15.137,-164.062,26.367
1735836599.075,66.406,19.043,11.719,-175.293,12.695
1735836599.079,83.008,19.531,8.789,-212.891,4.395
1735836599.083,114.258,16.602,-1.465,-166.992,9.277
1735836599.087,103.027,1.953,-2.930,-146.973,28.320
1735836599.091,96.191,8.789,5.859,-150.879,28.320
1735836599.094,93.750,-1.953,8.789,-124.023,25.879
1735836599.098,97.168,-12.207,7.812,-120.605,24.902
1735836599.102,114.258,-18.555,0.488,-74.707,33.691
1735836599.106,143.555,-17.090,0.488,-64.941,39.062
1735836599.110,146.973,-21.484,-5.859,-79.102,43.457
1735836599.114,130.371,-31.250,-10.254,-23.438,47.852
1735836599.118,124.512,-35.156,-5.859,33.203,47.363
1735836599.122,137.695,-26.855,-1.465,55.176,28.809
1735836599.126,136.719,-20.020,3.418,36.621,19.043
1735836599.130,129.395,-29.785,-6.348,9.277,17.090
1735836599.134,116.699,-26.855,-9.277,80.078,18.066
1735836599.137,131.348,-16.113,16.602,135.254,6.348
1735836599.141,146.484,-29.785,10.254,125.977,20.508
1735836599.145,164.551,-30.273,-8.789,101.074,54.688
1735836599.149,171.387,-13.672,-8.301,102.539,53.223
1735836599.153,149.414,-2.930,8.301,187.988,24.902
1735836599.157,135.254,0.000,16.113,193.359,26.367
1735836599.161,127.930,-3.418,13.672,166.016,34.180
1735836599.165,141.602,-3.906,14.648,154.785,16.113
1735836599.169,147.949,-8.789,2.930,187.988,24.414
1735836599.173,156.738,0.488,9.766,227.051,15.625
1735836599.176,153.320,-2.441,3.906,175.781,6.348
1735836599.180,129.883,-16.602,-19.043,138.672,41.992
1735836599.184,103.516,-8.301,-6.348,154.297,39.062
1735836599.188,90.820,-5.859,13.672,182.129,35.156
1735836599.192,100.586,-0.488,18.555,186.035,25.391
1735836599.196,115.234,7.812,11.719,156.738,5.859
1735836599.200,124.023,-0.977,4.883,180.176,39.551
1735836599.204,112.793,4.883,7.812,199.707,41.992
1735836599.208,107.910,14.160,6.836,192.383,21.973
1735836599.212,117.676,13.184,6.836,159.180,23.926
1735836599.216,124.023,7.324,5.859,147.461,23.926
1735836599.219,103.516,11.719,3.418,188.477,21.973
1735836599.223,99.609,17.090,0.488,151.855,23.438
1735836599.227,122.070,26.855,17.090,132.812,12.207
1735836599.231,96.680,32.715,29.785,147.461,0.000
1735836599.235,52.246,14.648,9.766,156.738,13.184
1735836599.239,59.570,20.508,10.254,187.500,38.574
1735836599.243,82.031,27.344,14.160,148.438,33.203
1735836599.247,88.867,27.832,14.648,113.281,19.043
1735836599.251,68.848,28.320,12.207,139.160,25.391
1735836599.255,68.848,27.832,9.277,155.762,21.973
1735836599.259,70.801,24.414,14.160,141.602,15.625
1735836599.262,60.547,23.926,22.461,87.891,17.090
1735836599.266,72.754,34.668,30.762,90.820,27.344
1735836599.270,78.613,32.227,27.344,132.324,30.273
1735836599.274,62.988,23.438,12.695,110.840,41.016
1735836599.278,61.035,30.762,18.066,94.238,68.848
1735836599.282,54.199,32.715,21.973,101.562,66.895
1735836599.286,84.473,28.320,17.578,135.742,66.895
1735836599.290,79.590,32.715,16.113,134.277,64.941
1735836599.294,15.137,35.156,25.391,103.516,43.457
1735836599.298,31.738,25.879,22.949,73.242,38.574
1735836599.301,62.500,21.973,20.020,86.914,30.762
1735836599.305,59.082,32.715,30.762,114.746,34.668
1735836599.309,37.109,38.574,32.227,82.031,29.785
1735836599.313,22.949,29.297,21.484,41.992,41.504
1735836599.317,30.273,24.414,9.277,85.449,66.406
1735836599.321,45.898,38.574,22.949,115.234,37.109
1735836599.325,59.082,53.223,36.621,79.590,-7.324
1735836599.329,68.359,38.086,18.555,39.062,5.371
1735836599.333,48.828,18.066,11.230,49.316,27.344
1735836599.337,35.645,18.066,15.137,94.238,47.852
1735836599.341,58.105,38.574,21.973,91.309,15.625
1735836599.344,40.527,44.434,22.949,50.781,-26.855
1735836599.348,27.832,20.020,12.695,61.523,-7.324
1735836599.352,67.871,17.578,11.230,125.000,31.250
1735836599.356,60.059,33.203,27.344,122.070,33.691
1735836599.360,54.199,41.992,44.922,88.379,4.883
1735836599.364,79.102,36.133,31.250,64.941,11.719
1735836599.368,39.551,24.902,17.578,59.570,41.504
1735836599.372,18.066,24.414,27.832,97.168,45.410
1735836599.376,45.898,27.344,32.227,87.402,41.992
1735836599.380,65.430,42.480,24.902,46.387,42.480
1735836599.384,46.875,36.133,16.602,81.055,35.645
1735836599.387,42.969,32.227,27.832,116.699,25.391
1735836599.391,31.738,39.062,33.691,84.473,20.508
1735836599.395,15.625,43.945,37.109,53.223,38.086
1735836599.399,36.133,44.434,42.480,54.199,50.293
1735836599.403,52.246,38.574,31.250,80.566,51.270
1735836599.407,55.664,41.016,24.902,76.660,51.270
1735836599.411,39.551,43.457,32.715,65.430,53.711
1735836599.415,43.945,44.922,39.062,40.039,39.062
1735836599.419,28.320,49.805,42.969,48.828,3.906
1735836599.423,20.508,37.598,29.297,58.105,24.414
1735836599.426,44.922,35.156,26.367,36.621,36.133
1735836599.430,44.922,39.551,24.902,47.363,39.062
1735836599.434,43.457,37.598,21.484,71.777,77.148
1735836599.438,21.484,39.551,23.926,79.590,59.570
1735836599.442,18.555,37.598,23.926,72.754,48.828
1735836599.446,55.176,34.668,29.297,31.738,37.109
1735836599.450,57.617,31.738,29.297,58.594,34.180
1735836599.454,36.621,46.875,39.062,99.609,43.457
1735836599.458,33.203,55.176,35.156,46.875,23.926
1735836599.462,33.203,38.086,17.090,13.672,9.277
1735836599.466,31.250,31.250,25.879,43.457,49.805
1735836599.469,32.715,34.180,29.297,90.820,62.500
1735836599.473,49.805,36.621,27.344,62.988,31.250
1735836599.477,49.805,34.668,28.809,15.137,24.902
1735836599.481,40.527,28.320,23.926,24.414,39.551
1735836599.485,17.578,28.809,22.949,81.055,47.363
1735836599.489,12.695,33.203,41.504,104.492,36.133
1735836599.493,36.621,42.969,48.828,63.477,39.551
1735836599.497,69.824,59.570,41.992,38.574,47.363
1735836599.501,52.246,55.664,43.457,61.523,12.695
1735836599.505,41.504,46.387,41.504,71.777,22.461
1735836599.508,41.992,52.246,48.828,67.383,23.438
1735836599.512,14.160,55.176,47.852,35.645,20.508
1735836599.516,0.977,32.715,30.273,25.391,48.828
1735836599.520,11.230,20.996,27.344,75.684,45.410
1735836599.524,49.316,32.715,35.645,72.266,46.875
1735836599.528,39.551,44.434,41.992,22.949,32.715
1735836599.532,23.438,39.062,38.086,22.949,31.738
1735836599.536,37.598,39.062,31.738,73.730,67.871
1735836599.540,43.945,40.527,21.973,80.566,60.547
1735836599.544,42.969,32.715,24.414,48.828,24.902
1735836599.548,56.641,44.922,45.898,42.969,0.977
1735836599.551,51.758,45.410,37.109,43.457,7.812
1735836599.555,27.832,29.297,18.066,69.336,32.715
1735836599.559,33.203,41.016,27.344,62.988,34.668
1735836599.563,16.602,53.223,33.203,13.672,54.199
1735836599.567,20.020,43.945,30.273,46.875,72.266
1735836599.571,44.434,36.133,29.297,83.496,40.527
1735836599.575,47.363,43.945,17.578,84.473,18.555
1735836599.579,44.434,52.246,16.602,46.875,28.809
1735836599.583,38.574,41.992,35.645,36.621,30.762
1735836599.587,40.527,32.715,28.809,94.238,35.156
1735836599.591,46.387,34.668,21.484,76.172,32.227
1735836599.594,48.340,48.828,31.738,36.621,1.953
1735836599.598,46.387,47.363,26.855,45.410,0.000
1735836599.602,45.410,41.992,25.879,77.148,15.625
1735836599.606,72.266,58.594,43.457,81.543,3.906
1735836599.610,76.172,47.852,29.297,31.738,13.672
1735836599.614,27.832,40.527,9.766,20.996,56.641
1735836599.618,-5.859,43.945,9.277,64.941,68.359
1735836599.622,15.137,41.992,24.414,76.172,51.758
1735836599.626,20.508,42.969,35.156,58.105,42.969
1735836599.630,27.832,45.410,27.344,20.996,38.086
1735836599.633,26.855,41.016,26.855,14.160,51.270
1735836599.637,33.203,35.645,24.414,63.477,69.336
1735836599.641,84.961,54.199,35.156,61.523,18.555
1735836599.645,42.480,49.316,28.809,14.648,-5.371
1735836599.649,-6.836,36.621,5.859,29.785,52.734
1735836599.653,13.672,45.410,14.648,81.543,56.152
1735836599.657,33.203,44.434,26.855,64.941,22.949
1735836599.661,39.551,46.387,41.992,16.602,-2.441
1735836599.665,17.090,31.738,35.156,25.879,17.090
1735836599.669,13.184,25.391,17.578,58.594,49.316
1735836599.673,42.969,42.480,21.484,59.570,21.484
1735836599.676,29.297,52.246,37.109,47.363,7.812
1735836599.680,13.184,46.387,39.551,17.090,29.297
1735836599.684,41.992,42.480,26.855,42.969,52.734
1735836599.688,40.039,43.457,21.973,68.359,35.156
1735836599.692,46.387,36.621,23.438,53.711,9.766
1735836599.696,43.457,43.945,27.344,38.086,34.180
1735836599.700,15.137,50.781,41.016,44.434,26.367
1735836599.704,8.789,42.480,32.715,70.801,40.527
1735836599.708,29.785,43.945,28.809,61.035,53.223
1735836599.712,36.133,42.480,33.691,27.344,41.992
1735836599.716,23.438,38.086,29.785,20.996,62.988
1735836599.719,41.504,38.574,25.879,70.312,48.828
1735836599.723,26.855,36.621,19.531,76.172,44.434
1735836599.727,9.277,37.109,25.879,27.832,34.180
1735836599.731,31.738,38.574,27.832,16.602,37.598
1735836599.735,46.875,47.852,32.227,54.688,55.176
1735836599.739,35.645,45.898,27.832,76.660,20.996
1735836599.743,-0.977,30.273,6.836,36.133,26.367
1735836599.747,4.883,40.527,12.207,-18.066,16.113
1735836599.751,18.555,34.180,14.648,27.344,20.020
1735836599.755,22.949,30.273,21.484,70.801,26.855
1735836599.758,6.348,30.762,24.902,32.715,13.184
1735836599.762,32.715,32.715,24.414,-11.230,33.691
1735836599.766,55.176,33.691,20.996,-6.836,41.992
1735836599.770,-3.906,29.785,10.742,56.641,34.668
1735836599.774,5.371,40.039,19.531,68.848,31.738
1735836599.778,27.344,53.223,28.320,42.969,40.527
1735836599.782,20.508,41.992,24.414,20.996,47.363
1735836599.786,2.930,27.344,10.254,44.434,36.133
1735836599.790,15.625,40.039,12.207,67.871,2.930
1735836599.794,48.828,49.805,31.738,36.621,-15.625
1735836599.798,20.020,46.387,19.043,13.672,38.574
1735836599.801,8.301,41.016,10.742,17.090,71.289
1735836599.805,14.648,41.016,18.066,33.691,49.316
1735836599.809,22.461,51.270,23.926,36.621,37.598
1735836599.813,17.090,62.012,15.137,-6.348,26.367
1735836599.817,28.320,51.270,2.441,24.414,34.668
1735836599.821,45.410,44.434,7.324,69.336,44.434
1735836599.825,12.695,52.734,15.137,46.387,54.199
1735836599.829,22.949,71.289,29.785,31.738,23.438
1735836599.833,39.551,62.988,23.438,7.324,-2.930
1735836599.837,32.227,35.645,2.930,37.109,47.363
1735836599.840,30.762,46.387,15.137,44.434,52.246
1735836599.844,12.207,58.105,31.250,4.395,27.832
1735836599.848,6.348,66.406,39.551,9.766,24.414
1735836599.852,19.531,65.430,29.297,56.152,34.180
1735836599.856,29.785,58.105,24.414,84.961,26.855
1735836599.860,38.574,64.941,32.715,45.898,30.273
1735836599.864,67.871,68.359,34.180,-1.465,58.594
1735836599.868,53.711,62.988,34.668,32.715,45.410
1735836599.872,22.949,67.383,33.691,80.078,42.480
1735836599.876,24.902,73.730,31.738,73.242,35.645
1735836599.880,18.066,64.453,26.367,-3.418,28.320
1735836599.883,23.926,61.035,31.250,7.324,51.270
1735836599.887,56.152,64.941,37.109,65.918,29.785
1735836599.891,47.852,54.199,22.949,44.434,19.531
1735836599.895,22.949,55.176,28.809,19.043,49.316
1735836599.899,32.227,63.965,38.574,25.879,52.246
1735836599.903,44.922,79.102,45.898,71.289,38.086
1735836599.907,41.016,80.566,49.805,70.312,-10.254
1735836599.911,33.691,58.594,28.809,25.391,-1.465
1735836599.915,61.523,62.988,31.250,29.785,30.762
1735836599.919,69.824,71.777,39.551,68.359,37.109
1735836599.923,60.547,82.031,42.480,76.660,-0.488
1735836599.926,28.809,75.195,37.109,40.527,-23.438
1735836599.930,16.113,62.988,27.344,5.371,20.020
1735836599.934,30.762,78.613,13.672,38.086,61.035
1735836599.938,66.406,94.238,20.020,64.453,46.875
1735836599.942,63.965,102.539,32.227,47.363,23.438
1735836599.946,6.348,93.750,27.344,8.789,20.996
1735836599.950,17.578,82.520,28.320,25.391,41.504
1735836599.954,30.762,79.102,29.297,90.820,65.430
1735836599.958,33.203,86.426,45.898,73.730,39.551
1735836599.962,21.484,89.844,52.246,17.090,31.738
1735836599.965,17.090,84.961,47.852,21.484,50.781
1735836599.969,38.574,80.078,40.527,61.035,31.250
1735836599.973,31.738,75.195,32.227,66.406,27.832
1735836599.977,39.062,80.566,41.992,32.715,27.832
1735836599.981,59.570,82.031,53.711,27.344,17.578
1735836599.985,50.781,60.059,33.691,66.406,45.410
1735836599.989,46.875,60.547,30.273,96.680,60.059
1735836599.993,79.590,77.148,42.969,98.633,45.898
1735836599.997,94.238,83.008,47.852,31.738,28.320
1735836600.001,51.758,71.777,39.551,29.785,39.062
1735836600.005,18.066,63.965,27.832,88.379,68.848
1735836600.008,30.273,70.312,29.297,68.359,62.500
1735836600.012,35.645,67.871,30.762,2.930,41.992
1735836600.016,20.508,68.359,39.062,-0.488,10.254
1735836600.020,15.625,64.941,30.762,43.945,7.324
1735836600.024,31.738,57.129,18.066,50.293,22.461
1735836600.028,26.367,53.223,15.137,19.043,29.785
1735836600.032,-8.301,39.062,15.625,0.977,33.691
1735836600.036,0.488,35.156,20.996,44.922,34.180
1735836600.040,14.648,44.922,19.531,60.059,35.645
1735836600.044,25.879,49.316,27.344,27.344,13.672
1735836600.048,12.207,45.410,36.133,27.344,5.371
1735836600.051,28.320,51.758,45.410,50.781,29.785
1735836600.055,49.805,61.035,55.664,43.457,19.043
1735836600.059,21.484,55.664,49.805,24.902,23.926
1735836600.063,4.395,49.316,40.039,-3.906,62.500
1735836600.067,12.695,34.668,37.109,19.531,55.664
1735836600.071,22.949,38.086,44.434,61.035,52.734
1735836600.075,29.297,58.594,61.035,13.184,-7.324
1735836600.079,33.203,49.805,47.363,1.465,-24.902
1735836600.083,13.184,41.016,29.297,47.852,40.039
1735836600.087,14.648,41.992,38.574,65.430,46.387
1735836600.090,25.391,55.176,55.664,42.480,20.020
1735836600.094,3.906,54.688,59.570,-16.113,8.301
1735836600.098,59.570,42.969,50.781,-10.742,29.785
1735836600.102,71.289,44.434,50.781,49.316,30.273
1735836600.106,-8.789,46.387,52.734,74.219,26.367
1735836600.110,8.301,58.105,62.012,41.016,10.742
1735836600.114,27.344,59.570,51.270,-4.395,23.438
1735836600.118,11.230,37.598,26.855,50.781,76.660
1735836600.122,18.555,36.621,32.715,81.055,54.688
1735836600.126,38.574,41.016,39.551,30.273,23.926
1735836600.130,51.270,44.434,42.969,-11.230,47.363
1735836600.133,16.113,48.340,38.574,13.672,58.594
1735836600.137,16.602,61.035,42.969,78.613,44.922
1735836600.141,36.133,73.730,60.547,62.012,27.344
1735836600.145,74.219,70.312,69.336,22.461,17.090
1735836600.149,76.172,66.895,69.336,21.973,26.855
1735836600.153,15.625,62.988,62.500,62.500,31.738
1735836600.157,22.949,57.617,63.477,95.215,15.137
1735836600.161,28.809,55.176,60.059,51.758,13.672
1735836600.165,29.785,58.594,54.688,23.926,23.926
1735836600.169,50.781,73.730,65.430,56.641,8.301
1735836600.172,37.109,69.824,61.035,53.223,2.441
1735836600.176,20.996,58.594,52.246,36.133,13.672
1735836600.180,34.668,53.711,54.199,18.555,43.457
1735836600.184,32.715,59.082,62.012,54.199,49.805
1735836600.188,64.453,63.477,62.012,82.031,8.789
1735836600.192,82.031,59.570,50.781,38.574,10.742
1735836600.196,55.664,59.570,54.688,9.766,34.180
1735836600.200,25.879,55.664,50.781,31.250,50.293
1735836600.204,14.648,57.129,49.805,83.496,63.965
1735836600.208,18.066,49.805,54.688,56.152,45.410
1735836600.212,7.812,41.992,41.016,4.883,51.270
1735836600.215,54.688,54.199,41.016,34.180,57.617
1735836600.219,91.797,61.035,52.246,77.148,43.457
1735836600.223,24.902,62.012,49.316,89.355,51.758
1735836600.227,-6.348,55.664,39.551,34.668,45.898
1735836600.231,12.207,57.617,46.387,-7.812,38.086
1735836600.235,27.344,53.223,47.363,49.316,47.852
1735836600.239,53.711,59.570,41.992,76.172,42.969
1735836600.243,20.996,61.035,47.852,40.039,13.672
1735836600.247,-2.930,50.293,53.711,1.465,9.277
1735836600.251,10.254,49.316,50.781,25.391,26.367
1735836600.255,-4.883,40.527,41.504,50.293,38.574
1735836600.258,-11.230,48.828,43.457,23.926,25.879
1735836600.262,20.508,66.895,51.758,-2.441,-1.465
1735836600.266,0.000,50.781,34.668,-19.043,14.648
1735836600.270,-48.340,41.992,39.062,22.949,36.133
1735836600.274,-62.988,50.293,54.688,25.879,33.691
1735836600.278,-53.223,51.758,51.758,-17.578,57.617
1735836600.282,-42.969,46.387,53.711,-25.879,57.129
1735836600.286,-46.875,44.434,52.734,-7.812,39.551
1735836600.290,-49.805,55.176,46.875,1.465,36.133
1735836600.294,-39.062,49.805,55.176,-27.344,10.254
1735836600.297,-45.410,45.898,69.824,-60.059,6.348
1735836600.301,-71.289,34.180,56.641,-36.621,22.949
1735836600.305,-76.172,23.926,42.969,-39.551,29.297
1735836600.309,-85.449,36.621,48.828,-67.871,30.273
1735836600.313,-77.148,47.852,54.688,-74.219,28.320
1735836600.317,-82.031,40.527,62.500,-34.668,43.457
1735836600.321,-85.449,31.250,70.312,-4.883,64.453
1735836600.325,-50.781,43.945,72.754,-39.551,37.109
1735836600.329,-22.461,40.039,60.547,-58.594,15.625
1735836600.333,-41.016,28.320,47.852,-19.043,35.156
1735836600.337,-78.125,24.902,35.156,-8.301,38.086
1735836600.340,-62.012,22.461,6.836,-22.461,40.039
1735836600.344,-56.152,27.344,-7.812,-55.664,14.648
1735836600.348,-59.082,20.020,-20.996,-66.406,29.297
1735836600.352,-19.043,17.090,-30.762,10.254,51.270
1735836600.356,16.602,32.715,-17.578,26.855,3.418
1735836600.360,-6.348,25.879,-15.625,-24.902,-5.859
1735836600.364,-12.207,24.414,-9.277,-40.527,33.691
1735836600.368,0.977,29.785,7.812,20.996,47.852
1735836600.372,7.324,40.527,31.250,79.102,20.996
1735836600.376,17.090,50.781,40.527,63.965,6.836
1735836600.380,27.832,45.898,34.668,20.996,30.762
1735836600.383,33.203,49.316,42.480,20.020,49.805
1735836600.387,50.293,53.711,45.410,70.801,62.012
1735836600.391,46.387,63.965,47.363,84.473,29.785
1735836600.395,13.184,63.965,34.180,23.926,7.812
1735836600.399,-30.762,42.480,22.461,4.395,48.340
1735836600.403,-54.688,43.945,39.551,41.016,49.316
1735836600.407,-28.809,50.781,33.203,24.414,42.969
1735836600.411,-23.926,57.617,33.691,-2.930,39.551
1735836600.415,-79.590,54.199,44.434,-7.812,24.902
1735836600.419,-124.512,49.805,27.344,0.977,47.363
1735836600.422,-107.910,58.105,27.832,-12.207,42.480
1735836600.426,-105.957,61.523,21.484,-24.414,41.504
1735836600.430,-103.516,62.500,17.090,-42.969,70.312
1735836600.434,-92.773,62.988,14.160,-13.672,54.199
1735836600.438,-108.398,66.895,20.996,23.438,31.738
1735836600.442,-130.859,62.988,24.902,-4.883,24.902
1735836600.446,-120.605,64.453,20.508,-11.719,42.969
1735836600.450,-82.031,88.379,48.340,16.602,23.926
1735836600.454,-115.723,81.055,50.293,75.684,19.043
1735836600.458,-111.816,72.266,45.410,99.121,44.922
1735836600.462,-71.777,95.703,59.570,96.191,23.926
1735836600.465,-70.312,102.539,73.730,162.109,16.602
1735836600.469,-66.895,97.656,78.613,229.980,45.898
1735836600.473,-63.477,104.980,83.008,252.930,42.480
1735836600.477,-61.035,112.305,101.074,233.887,31.250
1735836600.481,-69.824,107.910,118.652,214.355,55.176
1735836600.485,-42.969,123.047,122.070,282.715,57.617
1735836600.489,-42.480,129.395,111.328,289.062,23.438
1735836600.493,-63.477,112.793,92.285,241.699,26.855
1735836600.497,-69.336,116.699,96.680,214.355,58.594
1735836600.501,-33.203,116.699,102.539,237.793,55.664
1735836600.504,-18.066,117.676,114.258,280.762,64.453
1735836600.508,-59.082,125.488,124.512,213.867,53.711
1735836600.512,-56.152,124.023,130.859,144.043,32.227
1735836600.516,-41.992,110.352,137.207,134.277,69.824
1735836600.520,-7.324,113.281,136.230,145.996,67.383
1735836600.524,10.742,111.328,127.930,117.188,34.668
1735836600.528,-9.766,101.562,134.766,37.598,33.203
1735836600.532,-0.977,100.098,134.766,5.371,38.086
1735836600.536,-23.926,88.867,122.070,-3.418,47.363
1735836600.540,-48.828,88.867,129.395,-36.133,21.973
1735836600.544,-45.410,101.562,134.277,-70.312,2.441
1735836600.547,-48.828,81.543,129.395,-145.996,18.555
1735836600.551,-38.574,67.383,118.164,-141.113,36.621
1735836600.555,-26.855,62.988,106.445,-145.508,54.688
1735836600.559,-26.855,58.594,125.977,-194.824,45.410
1735836600.563,8.301,57.129,127.441,-220.215,37.109
1735836600.567,25.879,39.551,105.957,-223.145,35.645
1735836600.571,-3.418,38.574,87.891,-199.707,33.203
1735836600.575,-4.395,40.039,103.027,-246.582,56.152
1735836600.579,12.695,47.852,123.535,-331.055,21.484
1735836600.583,27.344,51.270,98.633,-359.863,-27.832
1735836600.587,44.922,25.879,78.613,-335.938,0.000
1735836600.590,19.531,33.203,75.195,-349.121,26.855
1735836600.594,6.348,42.969,68.848,-420.410,0.000
1735836600.598,33.691,27.832,62.012,-437.500,-4.883
1735836600.602,54.688,5.371,38.086,-380.371,52.734
1735836600.606,57.617,5.859,22.949,-358.887,51.270
1735836600.610,58.105,20.020,10.742,-366.211,23.926
1735836600.614,93.262,21.973,-7.324,-393.066,35.156
1735836600.618,88.379,21.484,8.301,-332.520,31.738
1735836600.622,51.758,17.578,18.555,-262.207,16.602
1735836600.626,58.105,11.719,11.719,-290.039,20.020
1735836600.629,64.941,-0.977,3.418,-325.684,20.996
1735836600.633,76.660,-10.254,-7.324,-324.707,25.879
1735836600.637,101.562,0.000,-10.742,-273.926,12.207
1735836600.641,103.027,-20.996,-21.973,-256.348,10.742
1735836600.645,93.262,-35.156,-8.789,-265.137,16.113
1735836600.649,104.492,-26.367,0.000,-213.379,23.438
1735836600.653,141.602,-27.344,-0.977,-139.648,22.461
1735836600.657,159.180,-28.320,7.812,-104.492,14.648
1735836600.661,128.418,-31.738,-2.441,-90.820,35.645
1735836600.665,114.258,-37.598,-10.254,-75.684,51.758
1735836600.669,117.676,-40.527,-4.883,-11.719,48.828
1735836600.672,158.203,-23.926,3.418,35.156,17.090
1735836600.676,174.805,-24.902,-1.953,35.645,-10.254
1735836600.680,112.305,-43.457,-15.137,39.551,27.832
1735836600.684,99.121,-43.457,-15.625,81.543,61.523
1735836600.688,120.605,-34.668,-16.602,132.324,57.129
1735836600.692,138.184,-19.531,-16.113,150.879,33.203
1735836600.696,155.273,-18.066,-23.438,150.879,39.062
1735836600.700,152.832,-22.949,-35.156,171.875,53.223
1735836600.704,174.805,-24.414,-31.738,225.098,55.664
1735836600.708,200.684,-10.254,-17.578,254.395,38.086
1735836600.712,179.688,-4.883,-15.137,220.215,26.855
1735836600.715,182.617,-12.207,-17.090,221.680,47.852
1735836600.719,166.504,-12.695,-21.484,292.480,52.246
1735836600.723,145.020,-4.395,-26.855,298.828,35.645
1735836600.727,169.434,9.277,-18.555,271.484,23.438
1735836600.731,180.176,20.996,-6.836,252.930,20.020
1735836600.735,157.715,7.324,-18.066,278.809,6.348
1735836600.739,133.301,0.000,-17.578,302.734,17.578
1735836600.743,139.648,13.672,-6.836,286.133,28.320
1735836600.747,131.348,22.949,-2.930,262.695,41.504
1735836600.751,149.902,28.320,6.836,255.371,39.551
1735836600.754,187.988,22.461,7.324,291.504,46.875
1735836600.758,143.555,21.973,9.766,270.996,38.574
1735836600.762,77.637,30.273,16.113,209.473,39.551
1735836600.766,89.844,37.598,32.715,216.309,42.480
1735836600.770,97.656,29.785,30.273,242.676,30.762
1735836600.774,74.707,21.973,14.160,230.469,16.113
1735836600.778,80.078,24.414,20.508,211.426,20.996
1735836600.782,72.266,26.367,16.113,194.824,41.992
1735836600.786,53.711,32.715,24.414,217.285,25.879
1735836600.790,57.617,45.410,37.598,213.379,23.438
1735836600.794,51.270,42.480,40.527,191.895,12.207
1735836600.797,-12.695,31.738,39.062,159.180,24.902
1735836600.801,-55.664,36.621,38.574,162.109,31.738
1735836600.805,-73.730,47.852,49.316,182.129,20.020
1735836600.809,-70.312,52.246,52.246,136.230,3.906
1735836600.813,-74.219,62.500,51.758,106.445,-2.441
1735836600.817,-115.723,61.523,41.504,119.629,50.781
1735836600.821,-127.441,71.777,46.875,157.227,56.152
1735836600.825,-105.469,97.168,56.152,126.465,-0.488
1735836600.829,-132.812,83.984,56.152,64.941,7.324
1735836600.833,-154.297,76.172,69.336,118.652,26.855
1735836600.837,-142.578,76.172,77.637,200.684,44.434
1735836600.840,-126.953,93.750,97.168,233.398,40.039
1735836600.844,-104.004,114.258,100.098,207.031,8.789
1735836600.848,-77.637,120.605,96.191,203.125,29.785
1735836600.852,-53.223,120.117,96.191,279.297,44.434
1735836600.856,-55.664,114.746,90.332,294.922,37.109
1735836600.860,-49.316,124.512,109.863,265.625,10.254
1735836600.864,-48.340,124.512,110.352,224.609,16.113
1735836600.868,-56.152,111.328,74.707,236.816,30.762
1735836600.872,-72.754,110.352,68.848,261.719,46.875
1735836600.876,-61.523,120.605,93.262,216.309,43.457
1735836600.879,-41.992,137.207,95.703,164.551,-9.277
1735836600.883,-52.246,121.582,78.125,149.902,17.578
1735836600.887,-65.918,103.027,81.055,173.828,58.105
1735836600.891,-65.918,113.281,91.797,170.410,13.672
1735836600.895,-37.598,107.910,97.168,105.957,8.789
1735836600.899,-26.367,107.910,96.680,68.848,42.480
1735836600.903,-19.531,105.957,91.309,87.402,61.035
1735836600.907,-7.812,93.750,72.266,76.172,59.082
1735836600.911,-9.766,89.355,61.523,15.137,24.902
1735836600.915,-25.879,88.867,86.914,-34.668,25.879
1735836600.919,-41.016,104.004,91.797,-13.672,4.883
1735836600.922,-40.527,79.590,68.359,-36.621,18.066
1735836600.926,-25.879,59.082,69.336,-94.727,52.734
1735836600.930,0.000,48.340,38.086,-120.117,60.059
1735836600.934,-4.395,45.898,35.645,-124.512,37.109
1735836600.938,-5.371,57.129,67.871,-124.023,29.785
1735836600.942,25.391,57.129,59.082,-184.570,29.785
1735836600.946,42.480,70.312,69.824,-258.789,-4.883
1735836600.950,-24.414,41.016,60.547,-248.535,6.348
1735836600.954,-29.297,37.598,47.852,-203.125,23.926
1735836600.958,-2.930,66.406,49.316,-204.102,29.297
1735836600.961,16.602,56.152,28.320,-270.508,36.133
1735836600.965,53.711,30.273,0.000,-285.645,34.180
1735836600.969,64.453,0.977,-14.160,-204.102,45.898
1735836600.973,92.285,6.836,10.742,-196.289,36.133
1735836600.977,85.938,27.832,36.133,-262.207,11.719
1735836600.981,67.871,46.387,62.988,-309.570,21.973
1735836600.985,62.012,52.246,74.219,-292.480,42.969
1735836600.989,59.082,32.227,54.688,-305.664,46.387
1735836600.993,107.910,24.414,40.527,-348.145,21.973
1735836600.997,126.465,20.020,41.016,-378.906,22.461
1735836601.001,100.098,4.395,30.273,-386.719,53.223
1735836601.004,84.961,-14.648,16.602,-347.656,62.988
1735836601.008,70.801,-52.246,24.414,-319.336,52.734
1735836601.012,83.984,-49.805,15.625,-339.355,43.457
1735836601.016,108.398,-25.879,24.902,-322.754,48.828
1735836601.020,99.121,-22.461,41.992,-274.414,65.430
1735836601.024,102.051,-21.973,38.574,-271.973,56.152
1735836601.028,120.605,-15.137,41.504,-288.086,10.742
1735836601.032,123.535,-19.531,31.738,-290.527,4.395
1735836601.036,119.629,-41.992,8.789,-235.840,34.180
1735836601.040,146.484,-33.203,4.883,-152.832,13.672
1735836601.044,174.316,-31.738,-5.371,-89.844,18.555
1735836601.047,169.922,-36.621,6.348,-84.473,26.367
1735836601.051,149.414,-42.969,2.441,-47.363,14.648
1735836601.055,130.371,-44.434,-16.113,24.902,28.809
1735836601.059,137.695,-34.668,-4.883,41.016,19.531
1735836601.063,172.363,-35.156,-6.836,56.641,9.277
1735836601.067,161.621,-32.715,-24.902,119.141,33.203
1735836601.071,143.555,-30.273,-28.809,179.199,42.480
1735836601.075,167.480,-30.762,-14.648,191.895,32.227
1735836601.079,146.973,-16.602,-18.555,161.621,33.203
1735836601.083,129.395,-9.766,-18.555,182.129,36.133
1735836601.086,133.789,-30.762,-21.484,255.859,34.180
1735836601.090,138.184,-33.691,-40.527,281.738,18.555
1735836601.094,120.117,-38.574,-37.598,233.398,22.461
1735836601.098,99.121,-55.664,-36.133,191.895,39.062
1735836601.102,90.332,-55.664,-43.945,237.793,43.457
1735836601.106,90.820,-35.645,-31.250,251.953,2.930
1735836601.110,80.566,-35.645,-33.203,209.473,5.371
1735836601.114,99.121,-29.785,-38.574,179.199,31.250
1735836601.118,125.488,-25.391,-36.133,205.078,38.574
1735836601.122,83.984,-23.926,-29.785,259.277,37.598
1735836601.126,60.547,-18.555,-21.484,234.863,5.859
1735836601.129,62.988,-17.578,-25.391,177.734,2.930
1735836601.133,65.918,-12.695,-28.809,201.660,28.320
1735836601.137,83.008,-10.742,-35.645,244.629,24.414
1735836601.141,96.191,-10.742,-24.414,237.793,19.043
1735836601.145,73.730,-8.789,-15.137,190.430,19.043
1735836601.149,73.730,-1.953,-26.855,196.289,52.734
1735836601.153,84.961,5.371,-15.625,242.188,40.527
1735836601.157,89.355,2.441,-2.441,222.168,22.949
1735836601.161,102.051,13.184,7.812,201.172,20.996
1735836601.165,68.359,15.137,-6.836,184.082,23.438
1735836601.169,51.758,0.000,-16.602,203.613,46.875
1735836601.172,58.594,0.000,-6.836,232.910,33.203
1735836601.176,45.410,8.301,-6.836,182.617,32.715
1735836601.180,50.781,19.531,0.977,132.812,55.176
1735836601.184,72.266,18.555,5.859,165.527,57.129
1735836601.188,73.242,8.301,3.418,198.730,55.664
1735836601.192,50.293,6.348,-5.371,161.621,60.059
1735836601.196,42.480,20.020,0.977,119.141,35.156
1735836601.200,49.316,32.227,20.508,136.230,16.113
1735836601.204,36.133,18.066,8.789,162.109,60.059
1735836601.208,72.266,18.066,2.930,166.016,74.707
1735836601.211,98.145,29.785,12.695,107.422,47.363
1735836601.215,54.688,25.879,18.555,85.938,58.105
1735836601.219,22.949,17.090,16.113,156.250,37.109
1735836601.223,16.113,21.484,16.113,156.250,20.020
1735836601.227,56.641,38.086,33.203,111.816,18.555
1735836601.231,63.477,34.668,35.156,78.125,23.438
1735836601.235,41.504,31.738,24.902,105.469,20.020
1735836601.239,61.523,35.156,21.973,143.066,5.859
1735836601.243,43.945,22.949,20.508,113.770,33.203
1735836601.247,12.207,14.648,27.344,103.516,39.062
1735836601.251,25.391,6.348,22.461,114.258,45.410
1735836601.254,55.176,15.137,20.996,143.555,44.922
1735836601.258,47.852,14.160,22.461,153.809,20.020
1735836601.262,71.289,18.066,23.926,95.215,20.020
1735836601.266,88.867,28.320,21.973,85.449,29.297
1735836601.270,44.922,31.738,18.555,118.652,34.180
1735836601.274,29.785,39.062,33.691,105.957,26.855
1735836601.278,25.879,33.691,40.527,90.332,30.273
1735836601.282,25.391,11.719,45.410,77.148,21.973
1735836601.286,15.137,5.859,38.086,106.445,19.531
1735836601.290,8.789,35.645,27.344,113.281,43.945
1735836601.293,42.480,55.176,30.273,77.148,41.504
1735836601.297,47.363,43.945,24.414,55.664,36.133
1735836601.301,56.641,32.715,25.391,95.215,32.227
1735836601.305,66.895,33.203,35.156,137.695,26.855
1735836601.309,35.645,42.480,35.645,101.562,37.598
1735836601.313,28.809,48.828,37.109,83.008,46.387
1735836601.317,37.109,37.598,29.297,107.910,62.500
1735836601.321,53.711,39.551,28.320,144.531,66.406
1735836601.325,54.688,46.875,36.133,131.348,37.109
1735836601.329,54.199,49.805,41.016,70.312,3.906
1735836601.333,47.363,37.598,32.715,69.824,9.766
1735836601.336,44.434,16.113,13.184,117.188,38.574
1735836601.340,76.660,29.785,17.578,146.973,63.477
1735836601.344,53.711,44.922,27.344,125.977,62.988
1735836601.348,35.156,45.410,34.180,84.961,32.715
1735836601.352,42.480,40.527,25.391,98.145,46.387
1735836601.356,48.828,42.969,28.320,97.168,70.312
1735836601.360,43.457,49.805,41.016,97.168,42.480
1735836601.364,94.727,44.922,39.062,93.262,46.875
1735836601.368,98.633,35.645,41.504,97.656,41.992
1735836601.372,24.414,44.434,42.480,120.605,15.137
1735836601.376,23.438,58.105,25.879,116.211,-8.789
1735836601.379,14.648,44.922,17.090,59.082,20.020
1735836601.383,22.949,41.504,40.527,61.035,69.824
1735836601.387,42.480,63.965,59.082,87.402,6.836
1735836601.391,36.621,53.223,41.016,78.613,8.301
1735836601.395,65.918,31.738,30.762,68.848,51.758
1735836601.399,65.430,31.738,31.738,81.055,47.363
1735836601.403,25.391,41.992,40.039,105.469,45.898
1735836601.407,28.809,51.758,43.945,86.426,22.949
1735836601.411,40.039,45.410,34.668,62.012,24.902
1735836601.415,44.434,43.457,40.527,49.805,15.137
1735836601.418,42.480,49.316,41.504,91.797,22.461
1735836601.422,49.805,58.105,48.828,111.328,24.414
1735836601.426,42.969,56.641,53.223,51.270,-9.277
1735836601.430,35.156,47.363,36.621,21.484,8.789
1735836601.434,40.039,45.898,32.715,68.359,30.273
1735836601.438,46.875,36.133,37.598,113.281,38.574
1735836601.442,50.781,42.969,45.410,104.492,37.109
1735836601.446,51.270,52.734,49.805,60.547,24.902
1735836601.450,62.500,50.781,35.156,59.082,47.852
1735836601.454,71.289,42.969,23.438,96.191,51.270
1735836601.458,41.016,41.504,26.855,113.281,45.410
1735836601.461,17.090,43.945,34.180,84.961,51.758
1735836601.465,40.039,50.293,49.316,41.992,34.668
1735836601.469,50.293,49.805,53.711,79.590,38.086
1735836601.473,44.434,40.527,49.805,87.402,41.504
1735836601.477,46.875,49.805,48.828,49.316,14.648
1735836601.481,56.641,69.336,59.082,26.855,1.465
1735836601.485,52.246,49.805,40.039,34.180,35.645
1735836601.489,71.777,45.898,21.973,91.797,59.570
1735836601.493,44.922,65.918,35.156,78.125,26.367
1735836601.497,11.230,65.918,58.594,56.641,27.832
1735836601.501,20.508,61.523,60.547,66.406,73.730
1735836601.504,34.668,60.547,53.711,50.781,55.176
1735836601.508,35.645,55.664,55.176,51.270,26.855
1735836601.512,28.320,42.969,53.223,62.500,39.062
1735836601.516,34.668,45.410,54.199,63.477,19.531
1735836601.520,61.523,40.039,41.504,32.715,3.418
1735836601.524,64.453,35.645,23.438,29.785,27.832
1735836601.528,35.645,51.270,43.945,49.316,17.090
1735836601.532,38.086,48.828,63.477,42.969,23.438
1735836601.536,30.762,32.227,56.152,76.172,41.016
1735836601.540,23.438,21.973,45.410,71.777,36.621
1735836601.543,29.785,27.832,52.734,22.461,31.738
1735836601.547,14.648,26.367,56.641,13.184,28.320
1735836601.551,32.227,20.996,43.945,66.895,33.203
1735836601.555,49.316,30.273,40.039,97.656,35.156
1735836601.559,33.203,40.039,61.035,71.289,23.926
1735836601.563,41.504,38.086,70.312,58.105,38.086
1735836601.567,35.156,30.273,62.012,60.547,47.363
1735836601.571,29.297,33.691,57.617,77.637,50.293
1735836601.575,41.504,49.316,67.871,70.312,24.902
1735836601.579,43.945,36.133,58.105,15.137,26.855
1735836601.583,46.387,28.320,51.758,10.254,56.152
1735836601.586,35.645,37.598,49.805,91.797,50.293
1735836601.590,38.086,40.039,42.480,97.656,43.945
1735836601.594,41.504,39.551,44.922,58.105,66.406
1735836601.598,25.879,44.434,47.852,36.133,75.684
1735836601.602,52.734,41.016,55.176,53.711,58.105
1735836601.606,56.152,40.527,59.082,83.008,35.156
1735836601.610,30.762,52.246,58.105,59.082,9.277
1735836601.614,27.832,37.109,48.340,14.160,16.113
1735836601.618,21.973,18.555,40.039,20.508,48.828
1735836601.622,27.832,31.738,42.480,60.547,45.898
1735836601.625,28.320,39.551,43.945,73.730,28.320
1735836601.629,26.855,43.945,54.199,45.410,37.109
1735836601.633,11.230,47.852,49.805,44.434,45.898
1735836601.637,37.598,43.945,42.480,76.660,71.289
1735836601.641,75.684,45.410,59.570,48.340,65.430
1735836601.645,41.504,59.570,73.730,12.695,12.695
1735836601.649,13.184,60.059,61.523,12.207,-4.883
1735836601.653,-1.465,49.805,55.664,66.406,28.320
1735836601.657,7.324,49.805,64.941,68.848,40.039
1735836601.661,12.207,45.410,62.012,25.879,35.645
1735836601.665,18.066,47.852,62.500,26.367,41.016
1735836601.668,20.020,60.547,63.477,55.664,24.414
1735836601.672,27.832,50.781,43.457,72.754,26.367
1735836601.676,39.551,51.270,50.781,42.969,9.766
1735836601.680,36.621,59.570,57.617,14.160,24.414
1735836601.684,44.922,51.270,39.062,41.992,47.852
1735836601.688,36.621,32.715,37.109,77.637,27.344
1735836601.692,22.461,29.297,44.434,87.402,32.227
1735836601.696,50.781,50.293,49.316,30.762,25.879
1735836601.700,68.848,57.129,41.992,54.688,41.992
1735836601.704,38.574,62.500,48.340,129.395,51.270
1735836601.708,20.020,58.105,50.293,51.270,43.945
1735836601.711,14.160,40.527,41.016,-4.883,44.434
1735836601.715,22.949,40.527,46.875,2.930,58.594
1735836601.719,41.016,48.828,46.875,44.434,44.922
1735836601.723,40.527,56.152,45.410,69.824,20.020
1735836601.727,29.297,49.805,40.039,36.621,21.973
1735836601.731,25.391,39.551,29.297,9.766,47.363
1735836601.735,26.367,41.992,27.832,29.785,49.805
1735836601.739,19.531,38.086,24.902,81.543,32.227
1735836601.743,15.625,35.156,20.508,105.469,38.574
1735836601.747,37.598,38.574,32.715,47.852,36.133
1735836601.750,38.574,36.133,37.598,12.695,34.180
1735836601.754,57.617,33.691,33.691,35.645,40.039
1735836601.758,51.758,41.504,42.969,45.410,43.457
1735836601.762,25.391,60.059,54.199,20.508,37.598
1735836601.766,1.953,45.410,30.762,15.625,39.551
1735836601.770,20.020,28.809,17.090,61.035,50.781
1735836601.774,33.691,37.109,27.832,57.617,33.203
1735836601.778,12.207,54.688,42.480,26.367,0.000
1735836601.782,22.949,58.105,41.992,26.367,0.488
1735836601.786,20.508,39.551,15.625,68.359,39.551
1735836601.790,43.945,47.363,23.438,88.379,33.203
1735836601.793,69.336,61.035,38.574,56.152,-9.277
1735836601.797,50.293,68.848,46.875,27.832,-13.672
1735836601.801,32.227,52.246,34.180,39.551,0.000
1735836601.805,8.301,32.227,14.160,63.965,14.160
1735836601.809,31.738,39.551,14.648,71.777,14.160
1735836601.813,69.824,41.016,19.531,25.879,13.672
1735836601.817,36.133,38.574,23.926,19.043,19.043
1735836601.821,-1.465,29.785,20.020,74.707,34.180
1735836601.825,-2.930,32.715,18.066,80.566,40.039
1735836601.829,14.160,38.574,16.113,47.363,56.152
1735836601.833,20.508,39.551,11.230,35.156,67.383
1735836601.836,21.973,43.945,13.672,89.355,61.035
1735836601.840,19.043,39.551,28.320,95.215,43.945
1735836601.844,17.090,29.297,33.203,50.293,30.273
1735836601.848,15.137,28.320,23.926,5.859,41.016
1735836601.852,16.113,35.156,26.855,36.621,31.738
1735836601.856,63.965,40.527,37.598,79.590,7.324
1735836601.860,49.316,27.344,29.297,36.621,18.066
1735836601.864,-11.719,24.414,25.391,8.789,28.320
1735836601.868,-6.348,20.020,25.879,30.273,58.594
1735836601.872,13.672,28.809,29.785,71.289,69.336
1735836601.875,25.391,49.316,29.297,77.637,31.738
1735836601.879,27.832,37.109,20.996,36.133,27.832
1735836601.883,41.504,25.391,23.926,49.805,41.016
1735836601.887,35.156,30.273,27.832,81.543,39.062
1735836601.891,33.203,46.875,39.551,61.523,25.879
1735836601.895,19.531,51.270,41.504,29.785,9.277
1735836601.899,-12.207,29.785,21.973,20.996,37.598
1735836601.903,1.953,24.414,18.066,86.426,50.293
1735836601.907,17.090,34.180,24.902,81.055,43.457
1735836601.911,21.973,47.852,30.762,31.738,25.391
1735836601.915,37.598,47.852,31.250,46.875,10.254
1735836601.918,64.453,43.457,23.926,69.824,15.625
1735836601.922,47.363,39.062,18.555,107.910,40.527
1735836601.926,24.902,34.668,17.578,65.918,47.363
1735836601.930,24.902,40.527,9.277,-3.418,44.922
1735836601.934,24.414,40.039,10.254,38.086,58.105
1735836601.938,33.203,29.785,20.996,93.262,62.012
1735836601.942,32.227,32.227,24.414,83.496,47.852
1735836601.946,36.621,47.852,25.391,24.414,20.996
1735836601.950,58.105,51.758,29.785,32.227,21.973
1735836601.954,50.293,38.086,23.438,98.633,25.391
1735836601.957,44.922,37.598,26.855,68.359,10.742
1735836601.961,44.434,44.922,31.250,39.551,32.715
1735836601.965,29.297,53.711,32.715,31.738,64.941
1735836601.969,28.809,57.129,31.738,59.570,45.898
1735836601.973,4.883,43.945,24.414,94.727,30.762
1735836601.977,6.836,43.945,26.855,42.480,37.109
1735836601.981,19.043,48.340,26.367,7.324,34.180
1735836601.985,25.879,46.387,33.203,34.180,35.645
1735836601.989,31.738,37.109,34.180,51.270,41.992
1735836601.993,29.297,27.344,23.926,69.336,31.738
1735836601.997,23.438,27.344,28.320,41.992,43.945
1735836602.000,32.715,23.926,33.203,21.973,58.105
1735836602.004,17.578,30.762,40.527,53.711,51.758
1735836602.008,17.090,38.574,41.992,32.715,35.645
1735836602.012,31.250,40.527,36.621,27.344,22.949
1735836602.016,33.691,27.344,27.344,40.039,59.082
1735836602.020,48.828,20.020,28.320,61.035,73.730
1735836602.024,29.785,36.621,43.945,42.480,44.434
1735836602.028,19.531,46.387,45.410,3.906,36.133
1735836602.032,18.066,42.969,40.039,2.441,35.156
1735836602.036,2.930,28.809,30.273,40.527,41.992
1735836602.040,11.719,22.461,30.762,76.172,67.871
1735836602.043,38.086,42.480,44.922,42.480,26.367
1735836602.047,52.734,40.527,33.691,-11.230,24.902
1735836602.051,39.062,33.691,23.926,31.250,65.430
1735836602.055,33.203,41.016,28.320,94.727,47.363
1735836602.059,62.012,36.621,31.250,77.148,24.902
1735836602.063,31.738,29.297,34.180,-10.254,21.484
1735836602.067,8.301,26.367,23.438,-9.277,45.410
1735836602.071,19.531,36.621,20.508,67.383,61.035
1735836602.075,24.414,40.527,29.297,62.988,41.016
1735836602.079,44.922,46.875,41.992,33.203,25.391
1735836602.082,51.758,45.410,38.574,9.277,28.809
1735836602.086,45.410,30.273,12.695,41.992,37.598
1735836602.090,35.645,34.180,9.766,69.336,22.461
1735836602.094,12.207,32.227,20.508,43.945,22.949
1735836602.098,21.484,33.203,32.715,21.484,39.062
1735836602.102,26.367,40.039,39.062,40.039,47.363
1735836602.106,43.945,48.340,42.969,82.031,52.734
1735836602.110,72.266,49.805,48.340,65.430,31.250
1735836602.114,56.641,46.387,49.805,25.879,26.367
1735836602.118,27.344,39.062,52.246,57.129,44.434
1735836602.122,20.996,41.504,46.875,87.891,18.066
1735836602.125,22.949,45.410,34.180,78.613,18.555
1735836602.129,13.184,27.344,36.621,50.781,41.504
1735836602.133,18.066,22.949,35.645,55.176,53.711
1735836602.137,31.738,41.504,26.367,105.957,37.598
1735836602.141,34.180,36.621,18.555,83.984,18.066
1735836602.145,27.344,28.809,26.855,35.645,24.902
1735836602.149,32.227,26.367,34.180,32.227,21.484
1735836602.153,53.223,31.250,31.250,72.266,28.809
1735836602.157,42.969,37.598,25.391,78.613,-0.488
1735836602.161,24.902,24.902,11.719,36.621,13.672
1735836602.165,32.227,37.598,11.719,31.250,38.574
1735836602.168,31.738,43.945,11.719,75.684,37.109
1735836602.172,25.879,47.363,16.602,99.121,40.527
1735836602.176,46.875,51.758,14.648,68.359,10.742
1735836602.180,41.504,32.227,0.977,25.391,-1.953
1735836602.184,7.324,25.391,-3.418,58.105,28.320
1735836602.188,8.789,32.715,-0.977,109.375,54.688
1735836602.192,4.883,36.621,12.695,76.660,30.762
1735836602.196,3.418,20.996,15.137,4.883,35.645
1735836602.200,27.832,9.766,17.090,-4.883,55.176
1735836602.204,26.855,24.414,25.391,56.152,53.223
1735836602.207,-3.906,33.203,33.691,63.477,45.898
1735836602.211,0.488,42.480,38.086,24.902,37.598
1735836602.215,26.367,48.828,44.922,38.086,63.477
1735836602.219,32.227,43.945,46.875,79.590,52.734
1735836602.223,19.531,38.086,49.316,75.195,32.715
1735836602.227,0.000,46.875,57.617,46.875,31.250
1735836602.231,17.578,58.594,66.895,25.879,15.137
1735836602.235,-0.977,42.480,52.246,19.043,41.016
1735836602.239,-2.930,32.227,33.691,12.695,53.711
1735836602.243,-1.465,30.273,43.457,26.367,28.809
1735836602.247,-20.020,41.504,67.383,-5.859,30.762
1735836602.250,-44.434,44.922,62.500,-10.254,45.898
1735836602.254,-77.637,39.062,49.805,23.438,65.918
1735836602.258,-69.824,60.059,76.660,-9.766,24.902
1735836602.262,-85.449,57.129,79.590,-53.711,9.766
1735836602.266,-86.426,59.570,79.590,-54.688,38.086
1735836602.270,-91.309,62.500,80.078,-19.043,36.621
1735836602.274,-119.141,49.316,73.730,-48.340,18.066
1735836602.278,-123.047,61.035,75.684,-85.938,8.789
1735836602.282,-129.395,63.477,72.754,-83.984,40.039
1735836602.286,-122.559,57.129,70.312,-62.012,63.477
1735836602.290,-153.809,54.688,64.453,-42.969,25.391
1735836602.293,-168.945,54.199,76.660,-68.359,1.465
1735836602.297,-153.809,57.129,83.984,-116.211,-9.277
1735836602.301,-154.297,50.781,72.266,-79.102,32.227
1735836602.305,-123.047,52.734,79.102,-27.832,51.270
1735836602.309,-123.535,56.152,83.496,-33.691,35.156
1735836602.313,-156.250,58.105,83.496,-73.242,26.855
1735836602.317,-153.809,45.898,76.660,-79.102,28.320
1735836602.321,-140.137,43.945,71.289,-10.254,48.340
1735836602.325,-114.258,63.965,94.238,6.348,20.508
1735836602.329,-126.465,64.941,92.773,-41.016,14.648
1735836602.332,-91.797,59.082,82.031,-66.895,34.668
1735836602.336,-65.918,58.105,83.008,-12.207,44.434
1735836602.340,-87.891,67.871,94.238,33.203,46.387
1735836602.344,-82.520,64.941,100.586,-1.465,15.625
1735836602.348,-79.102,47.852,91.309,-25.391,31.738
1735836602.352,-67.383,40.527,80.078,1.953,69.824
1735836602.356,-59.570,48.828,73.242,19.531,71.289
1735836602.360,-39.062,66.406,90.820,15.137,26.367
1735836602.364,-20.508,62.012,91.797,-28.320,-2.930
1735836602.368,-10.742,40.527,70.801,-43.457,27.832
1735836602.372,-13.184,34.668,83.984,-13.184,31.738
1735836602.375,-20.508,37.109,88.867,-11.230,23.438
1735836602.379,-11.719,47.852,80.566,-20.996,16.113
1735836602.383,7.324,53.711,85.449,-15.625,12.207
1735836602.387,22.949,43.945,86.914,32.227,38.086
1735836602.391,27.832,40.527,81.055,14.160,30.273
1735836602.395,31.250,54.199,71.777,-40.527,28.320
1735836602.399,16.113,62.500,65.430,-19.531,17.090
1735836602.403,24.414,50.293,56.641,31.250,21.484
1735836602.407,27.344,49.316,60.547,14.160,25.879
1735836602.411,42.480,43.945,54.199,-37.109,22.461
1735836602.414,64.453,39.062,47.363,-43.945,31.250
1735836602.418,51.758,49.805,59.570,10.254,13.184
1735836602.422,53.223,40.039,34.180,37.109,27.344
1735836602.426,68.848,31.738,25.391,17.090,37.109
1735836602.430,86.426,45.410,40.527,-26.367,38.574
1735836602.434,97.656,64.453,39.062,-6.836,47.363
1735836602.438,82.031,68.848,34.180,57.617,30.762
1735836602.442,89.844,57.129,29.297,51.270,22.461
1735836602.446,116.699,59.082,25.391,20.020,16.602
1735836602.450,99.121,58.594,19.531,15.625,30.273
1735836602.454,105.957,53.223,23.926,64.453,49.316
1735836602.457,107.910,45.410,29.785,68.359,40.039
1735836602.461,73.242,33.203,14.648,7.812,30.762
1735836602.465,65.918,36.133,5.371,7.812,59.082
1735836602.469,75.195,34.180,3.418,49.805,70.801
1735836602.473,89.355,40.039,9.766,88.379,44.922
1735836602.477,121.582,36.621,12.207,82.520,40.039
1735836602.481,124.512,31.250,10.254,35.156,46.387
1735836602.485,65.430,33.691,4.883,32.227,51.270
1735836602.489,51.758,38.086,9.277,57.617,49.805
1735836602.493,102.051,42.480,12.207,50.293,17.578
1735836602.497,111.328,51.270,14.648,28.809,8.789
1735836602.500,57.617,48.340,14.648,55.664,22.461
1735836602.504,49.316,33.203,5.371,102.051,40.527
1735836602.508,76.172,39.551,13.672,80.078,32.715
1735836602.512,68.359,59.570,31.738,46.875,-6.348
1735836602.516,26.367,44.434,23.926,39.062,14.648
1735836602.520,0.488,28.809,8.789,70.801,52.734
1735836602.524,-9.766,41.016,22.461,78.125,51.758
1735836602.528,-7.324,52.734,26.367,25.879,31.738
1735836602.532,-10.742,55.176,8.301,-2.441,28.809
1735836602.536,-29.785,48.828,7.324,32.227,66.895
1735836602.539,-41.992,54.688,25.879,33.203,52.734
1735836602.543,-68.359,55.664,32.715,-20.508,23.926
1735836602.547,-77.637,65.430,29.785,-55.664,22.461
1735836602.551,-56.152,61.035,25.879,-26.367,36.133
1735836602.555,-63.477,38.574,27.344,-6.836,52.246
1735836602.559,-73.730,47.363,23.438,-9.277,35.645
1735836602.563,-71.777,60.547,4.395,-35.645,37.109
1735836602.567,-89.844,57.129,20.508,-37.598,30.762
1735836602.571,-94.238,47.363,31.250,23.926,40.039
1735836602.575,-103.516,47.852,18.555,26.367,45.410
1735836602.579,-89.355,48.828,27.832,8.301,36.621
1735836602.582,-60.547,46.387,37.598,4.395,54.199
1735836602.586,-78.613,52.734,27.344,30.273,63.965
1735836602.590,-96.191,65.430,26.855,70.312,50.781
1735836602.594,-71.289,66.406,39.551,70.801,31.738
1735836602.598,-49.316,53.711,40.527,56.152,29.297
1735836602.602,-72.754,47.363,37.598,71.777,51.270
1735836602.606,-66.406,62.500,62.988,87.402,33.691
1735836602.610,-73.730,62.988,44.922,53.223,8.301
1735836602.614,-104.004,50.781,43.945,11.719,40.039
1735836602.618,-89.355,53.223,53.711,52.734,58.594
1735836602.622,-67.871,61.523,49.805,87.402,50.781
1735836602.625,-65.430,54.199,62.012,51.270,39.062
1735836602.629,-71.777,48.340,50.293,27.344,55.664
1735836602.633,-64.941,64.941,52.246,40.527,71.289
1735836602.637,-20.020,72.754,49.805,97.168,42.480
1735836602.641,12.207,75.684,45.410,68.848,17.090
1735836602.645,-41.504,76.172,56.641,3.906,16.602
1735836602.649,-77.637,59.570,57.617,5.371,9.766
1735836602.653,-72.266,56.641,65.918,53.711,49.316
1735836602.657,-36.133,71.289,77.148,87.402,71.289
1735836602.661,-13.672,78.613,87.891,39.062,20.996
1735836602.664,-37.598,71.289,86.426,-19.043,6.348
1735836602.668,-51.270,57.617,74.219,6.836,39.551
1735836602.672,-42.480,53.711,81.055,51.758,59.570
1735836602.676,-39.062,61.523,88.379,48.828,71.289
1735836602.680,-20.508,67.871,91.797,-5.371,37.109
1735836602.684,21.484,59.570,69.336,-6.836,19.531
1735836602.688,-13.184,49.805,57.617,41.992,29.785
1735836602.692,-62.012,46.875,62.012,27.832,12.695
1735836602.696,-45.898,43.945,70.801,-6.348,20.508
1735836602.700,-18.555,56.641,88.379,-20.508,28.320
1735836602.704,-27.344,44.434,68.848,1.953,32.715
1735836602.707,-37.109,29.785,55.664,10.742,27.344
1735836602.711,-34.180,32.715,55.176,-30.273,4.883
1735836602.715,-29.785,34.668,53.711,-51.270,21.973
1735836602.719,-6.348,38.574,50.293,-21.484,26.855
1735836602.723,-17.578,29.297,35.156,-5.859,33.691
1735836602.727,-21.973,28.809,48.340,-36.621,30.273
1735836602.731,-16.113,38.086,57.617,-65.430,14.160
1735836602.735,-6.836,36.621,70.312,-29.297,36.133
1735836602.739,-5.371,30.273,71.777,-37.598,25.391
1735836602.743,0.977,18.066,62.988,-87.891,19.043
1735836602.746,5.859,13.672,75.195,-90.820,43.945
1735836602.750,-31.250,19.043,64.941,-83.008,58.594
1735836602.754,-22.949,27.344,56.641,-61.523,68.359
1735836602.758,-1.953,30.273,66.895,-89.355,59.570
1735836602.762,-9.766,33.203,79.102,-119.629,37.598
1735836602.766,-16.602,28.809,67.871,-121.094,52.734
1735836602.770,-15.137,24.902,68.848,-80.566,54.688
1735836602.774,7.324,31.250,80.078,-59.570,48.828
1735836602.778,27.832,37.598,74.219,-115.723,33.203
1735836602.782,28.320,35.645,59.082,-147.949,21.973
1735836602.786,21.973,18.555,42.480,-104.980,34.668
1735836602.789,27.344,17.090,55.176,-84.473,28.809
1735836602.793,32.715,30.762,77.148,-101.562,3.418
1735836602.797,38.086,5.859,65.430,-164.551,1.465
1735836602.801,56.641,-4.883,53.223,-171.875,31.738
1735836602.805,32.715,-1.465,70.312,-118.164,43.457
1735836602.809,24.902,7.812,81.055,-111.816,35.156
1735836602.813,89.844,19.043,60.059,-154.785,23.926
1735836602.817,64.941,2.441,22.949,-164.551,37.598
1735836602.821,8.301,7.324,10.254,-101.562,45.898
1735836602.825,38.086,9.277,26.855,-88.379,41.504
1735836602.829,68.359,10.742,42.969,-141.602,5.371
1735836602.832,72.266,0.000,33.691,-176.270,-8.301
1735836602.836,65.918,-16.602,16.113,-136.230,33.691
1735836602.840,72.266,1.953,6.836,-95.215,38.574
1735836602.844,98.145,7.812,-0.977,-118.652,16.602
1735836602.848,102.539,8.789,-2.930,-125.977,11.719
1735836602.852,118.164,0.488,-15.137,-90.332,34.668
1735836602.856,135.254,-8.789,-21.484,-80.566,29.297
1735836602.860,101.074,-15.137,-26.367,-83.008,30.273
1735836602.864,111.816,-18.066,-27.832,-85.449,29.785
1735836602.868,151.367,-9.766,-38.086,-58.105,9.766
1735836602.871,131.836,-4.883,-51.270,5.371,24.414
1735836602.875,95.215,-9.277,-38.086,3.906,38.086
1735836602.879,112.305,-17.090,-30.762,-4.395,32.227
1735836602.883,144.043,-15.137,-33.203,32.227,30.273
1735836602.887,159.668,-1.953,-18.555,83.008,8.789
1735836602.891,146.484,-5.371,-17.090,98.633,24.414
1735836602.895,171.875,-4.395,-16.602,94.238,50.781
1735836602.899,192.871,0.977,-12.695,131.348,61.523
1735836602.903,178.223,-0.488,-12.207,194.824,83.496
1735836602.907,177.734,2.930,-9.766,219.727,77.148
1735836602.911,180.176,0.488,-13.184,185.059,45.410
1735836602.914,189.941,2.930,-10.254,177.734,40.039
1735836602.918,196.777,2.441,-2.441,256.348,60.059
1735836602.922,223.145,2.930,5.371,291.992,51.270
1735836602.926,218.262,5.371,7.812,263.184,8.301
1735836602.930,175.781,0.977,-1.465,229.004,7.812
1735836602.934,176.758,0.977,-2.441,237.793,31.250
1735836602.938,198.242,10.254,-2.441,318.848,33.691
1735836602.942,205.078,19.531,0.977,327.637,30.762
1735836602.946,209.961,18.066,3.418,282.715,40.527
1735836602.950,220.703,14.648,-4.883,272.461,71.777
1735836602.954,183.105,9.766,2.441,293.945,54.199
1735836602.957,166.504,8.789,14.160,317.871,31.738
1735836602.961,176.270,19.531,11.230,286.133,26.855
1735836602.965,175.293,17.090,3.906,250.488,20.020
1735836602.969,164.551,9.766,-2.441,259.766,43.457
1735836602.973,138.184,3.906,-3.418,262.207,54.688
1735836602.977,121.094,20.020,6.836,241.699,53.711
1735836602.981,125.000,53.711,28.320,204.102,35.645
1735836602.985,95.215,39.062,16.602,207.031,19.043
1735836602.989,88.867,25.879,9.277,227.539,53.223
1735836602.993,104.004,36.621,29.785,205.566,51.758
1735836602.996,110.352,46.875,39.062,182.617,30.762
1735836603.000,93.262,47.852,40.527,164.062,49.316
1735836603.004,41.504,36.621,33.691,178.711,41.992
1735836603.008,18.555,35.156,31.738,168.945,28.809
1735836603.012,5.371,38.574,41.504,114.258,28.320
1735836603.016,10.742,45.898,59.570,122.070,7.812
1735836603.020,-11.230,44.434,52.246,145.996,5.859
1735836603.024,-48.340,38.574,39.551,126.465,4.395
1735836603.028,-66.406,47.363,43.945,89.355,27.344
1735836603.032,-85.938,49.316,50.781,46.875,35.156
1735836603.036,-83.984,62.500,47.363,88.379,33.203
1735836603.039,-64.453,71.777,46.387,120.605,43.945
1735836603.043,-76.660,78.125,51.758,95.703,42.969
1735836603.047,-114.258,84.473,51.270,56.152,37.109
1735836603.051,-116.211,76.660,46.875,76.660,34.180
1735836603.055,-111.328,81.543,52.734,168.945,47.363
1735836603.059,-118.164,83.984,69.824,172.852,38.086
1735836603.063,-93.750,87.891,70.312,132.812,23.926
1735836603.067,-94.238,82.031,55.664,150.879,54.688
1735836603.071,-106.445,80.566,61.523,214.355,51.758
1735836603.075,-92.773,93.262,89.355,236.816,7.812
1735836603.078,-83.496,89.355,81.543,186.523,18.555
1735836603.082,-59.570,93.750,65.918,191.406,26.855
1735836603.086,-50.293,99.609,65.430,243.652,24.902
1735836603.090,-71.289,104.492,73.730,261.230,39.062
1735836603.094,-64.453,108.887,98.145,253.418,42.969
1735836603.098,-41.504,111.328,89.355,231.934,23.926
1735836603.102,-30.762,110.352,74.707,256.348,49.316
1735836603.106,-40.527,110.352,88.867,253.906,63.477
1735836603.110,-34.668,125.977,112.305,236.816,10.254
1735836603.114,-28.809,125.488,107.422,209.473,7.812
1735836603.118,-41.016,103.516,73.242,156.738,57.129
1735836603.121,37.598,102.051,77.637,158.203,58.594
1735836603.125,30.273,121.582,103.516,124.512,39.551
1735836603.129,-54.199,124.023,114.746,73.242,26.367
1735836603.133,-46.387,109.863,104.004,64.941,47.363
1735836603.137,-27.832,112.305,111.816,102.051,62.012
1735836603.141,-8.789,107.910,122.070,90.820,43.457
1735836603.145,28.320,92.773,123.047,11.230,29.785
1735836603.149,25.391,87.402,102.051,-3.906,32.715
1735836603.153,-27.344,81.543,87.891,57.129,39.551
1735836603.157,-27.344,93.262,122.559,38.574,2.441
1735836603.161,-3.906,72.754,125.488,-42.480,6.348
1735836603.164,20.508,53.223,101.074,-100.098,44.434
1735836603.168,44.434,82.031,107.910,-92.285,4.883
1735836603.172,-9.766,83.496,96.680,-87.402,-1.465
1735836603.176,-36.621,78.613,85.938,-138.672,15.625
1735836603.180,-6.348,50.293,83.496,-165.039,4.395
1735836603.184,3.906,31.250,80.566,-169.922,15.137
1735836603.188,0.488,41.504,82.031,-204.102,28.320
1735836603.192,2.441,30.273,71.777,-252.441,22.949
1735836603.196,25.879,38.574,67.383,-288.574,18.555
1735836603.200,61.035,29.785,13.184,-293.457,39.551
1735836603.203,31.250,26.367,34.668,-280.273,36.621
1735836603.207,8.789,34.668,71.777,-299.805,1.465
1735836603.211,34.668,13.184,60.059,-346.680,-0.977
1735836603.215,12.207,10.254,59.082,-374.023,21.484
1735836603.219,0.488,10.254,55.664,-391.113,35.645
1735836603.223,26.855,19.043,66.895,-423.340,20.996
1735836603.227,40.527,17.090,61.035,-446.777,13.672
1735836603.231,51.270,-1.465,44.922,-456.543,14.648
1735836603.235,54.688,-26.855,32.715,-424.316,23.926
1735836603.239,53.711,-41.992,24.414,-373.047,43.945
1735836603.243,71.289,-55.664,6.836,-372.070,22.949
1735836603.246,81.543,-66.406,-6.348,-381.348,8.301
1735836603.250,118.164,-62.500,-5.859,-339.844,34.668
1735836603.254,117.676,-76.172,-5.859,-279.297,29.785
1735836603.258,80.078,-84.961,-10.254,-266.602,26.367
1735836603.262,91.797,-61.523,-1.953,-281.250,-0.977
1735836603.266,91.309,-64.941,-6.836,-265.625,-16.602
1735836603.270,93.262,-77.637,-22.949,-169.434,31.738
1735836603.274,92.773,-64.453,-18.066,-113.281,38.574
1735836603.278,118.164,-65.918,-5.371,-126.465,28.320
1735836603.282,139.648,-68.848,-5.371,-139.160,41.992
1735836603.286,150.391,-67.383,-20.996,-68.848,34.668
1735836603.289,150.391,-58.594,-17.578,11.719,21.484
1735836603.293,138.672,-48.828,-6.348,44.434,25.879
1735836603.297,151.367,-36.133,-5.371,32.227,31.250
1735836603.301,139.648,-32.227,-12.695,34.180,13.672
1735836603.305,134.766,-45.410,-13.184,118.652,19.043
1735836603.309,155.273,-33.691,-6.348,160.645,32.227
1735836603.313,179.199,-22.949,-5.859,171.875,41.992
1735836603.317,177.734,-20.020,3.418,202.148,45.410
1735836603.321,173.828,-32.715,-0.488,257.812,40.039
1735836603.325,183.105,-53.711,-9.766,270.508,41.992
1735836603.328,169.922,-48.828,-17.578,229.492,45.898
1735836603.332,171.387,-37.109,-11.230,236.328,36.621
1735836603.336,151.855,-32.227,6.348,261.230,29.297
1735836603.340,150.879,-15.625,13.672,276.367,37.109
1735836603.344,169.434,2.441,14.648,254.883,19.531
1735836603.348,136.230,3.906,7.812,204.590,35.156
1735836603.352,112.793,2.441,2.441,253.906,57.129
1735836603.356,112.305,10.254,13.184,280.762,29.785
1735836603.360,124.023,3.418,-0.977,222.168,9.766
1735836603.364,112.305,-8.789,-26.855,212.891,34.668
1735836603.368,98.633,-7.324,-22.461,238.281,62.988
1735836603.371,122.070,3.906,-0.488,269.531,53.223
1735836603.375,148.926,9.277,-0.488,248.047,47.852
1735836603.379,108.887,-1.953,-8.789,194.824,44.922
1735836603.383,75.684,3.418,0.488,187.988,52.734
1735836603.387,84.473,19.043,4.395,238.281,74.707
1735836603.391,106.445,38.574,6.836,238.281,41.992
1735836603.395,123.535,32.715,3.418,161.133,14.160
1735836603.399,82.520,9.277,-18.555,129.395,26.855
1735836603.403,95.703,0.977,-21.484,198.730,39.062
1735836603.407,109.375,13.672,-3.906,228.027,75.195
1735836603.410,43.457,30.762,7.324,200.195,56.152
1735836603.414,35.156,28.320,2.441,145.996,9.766
1735836603.418,62.988,22.949,-6.836,146.973,40.527
1735836603.422,88.867,27.344,5.371,200.195,45.898
1735836603.426,92.773,33.691,8.301,193.848,38.086
1735836603.430,69.336,38.086,8.301,155.762,29.297
1735836603.434,62.500,39.551,2.930,114.258,26.855
1735836603.438,51.758,33.691,-8.789,131.836,31.738
1735836603.442,42.480,15.137,-1.953,151.855,3.418
1735836603.446,72.754,18.555,11.230,131.836,30.762
1735836603.450,96.680,46.387,28.320,148.438,42.480
1735836603.453,45.898,38.574,14.648,144.043,36.133
1735836603.457,26.367,22.461,5.859,115.723,53.223
1735836603.461,42.969,25.391,6.836,114.746,40.039
1735836603.465,59.082,30.762,-0.488,107.422,34.180
1735836603.469,53.711,29.297,7.812,137.695,29.785
1735836603.473,32.715,41.992,18.555,153.320,32.227
1735836603.477,68.848,59.082,26.855,135.742,15.625
1735836603.481,58.594,51.270,20.508,91.797,26.855
1735836603.485,50.293,48.828,19.043,103.516,24.414
1735836603.489,62.012,34.668,14.648,154.297,2.441
1735836603.493,43.457,20.020,-0.488,126.465,29.297
1735836603.496,39.551,33.203,10.742,66.895,35.645
1735836603.500,46.387,36.621,16.113,81.055,41.504
1735836603.504,68.359,34.668,10.742,124.512,56.152
1735836603.508,58.105,38.574,13.672,112.793,60.547
1735836603.512,29.297,30.762,21.484,75.684,45.410
1735836603.516,30.273,27.832,14.648,71.289,25.879
1735836603.520,41.992,35.645,4.395,124.512,42.480
1735836603.524,51.758,39.062,20.996,127.930,39.551
1735836603.528,39.062,43.945,32.715,83.984,0.977
1735836603.532,44.922,43.945,22.461,53.711,3.418
1735836603.535,41.504,32.715,8.789,81.055,10.742
1735836603.539,36.133,19.531,15.625,125.977,11.719
1735836603.543,32.715,31.250,30.762,83.984,12.207
1735836603.547,30.273,37.109,15.625,19.043,22.949
1735836603.551,29.297,20.020,3.906,40.527,47.852
1735836603.555,26.367,18.555,19.043,104.492,62.988
1735836603.559,41.992,40.527,37.109,114.746,27.344
1735836603.563,63.965,42.480,30.762,69.336,10.254
1735836603.567,78.125,22.949,20.508,57.129,51.758
1735836603.571,73.242,36.133,31.738,95.703,47.852
1735836603.575,44.922,47.852,35.645,109.375,45.410
1735836603.578,14.648,47.363,41.504,97.656,44.434
1735836603.582,26.855,40.039,41.992,71.777,9.277
1735836603.586,33.203,26.855,20.996,99.121,20.020
1735836603.590,29.297,34.668,16.602,102.539,27.344
1735836603.594,22.949,38.086,32.715,46.387,25.391
1735836603.598,32.715,47.852,36.621,33.691,24.414
1735836603.602,55.176,51.270,35.156,65.918,30.273
1735836603.606,43.945,47.363,49.316,86.914,20.020
1735836603.610,44.434,48.340,56.152,64.941,4.395
1735836603.614,54.688,45.410,39.551,58.594,26.367
1735836603.618,37.598,46.875,28.809,71.289,34.180
1735836603.621,28.809,51.758,43.945,118.164,45.410
1735836603.625,37.598,47.363,58.594,116.699,51.270
1735836603.629,45.410,48.340,53.223,40.039,24.414
1735836603.633,49.805,56.152,47.363,32.715,18.066
1735836603.637,58.105,64.941,52.246,102.051,18.555
1735836603.641,64.453,52.246,42.969,129.395,36.621
1735836603.645,73.730,41.992,41.016,83.496,40.039
1735836603.649,61.035,48.340,41.016,55.664,42.969
1735836603.653,49.316,42.969,33.691,110.840,67.871
1735836603.657,59.082,43.457,35.645,135.254,41.016
1735836603.660,49.316,41.992,30.273,87.402,19.531
1735836603.664,47.852,39.551,32.715,48.340,37.598
1735836603.668,57.617,38.086,42.480,72.754,29.785
1735836603.672,69.824,44.922,48.340,139.648,23.926
1735836603.676,79.590,48.340,36.621,97.656,9.277
1735836603.680,41.504,35.156,18.555,39.551,0.977
1735836603.684,13.672,30.762,26.367,61.035,58.105
1735836603.688,23.438,43.945,35.156,90.820,65.430
1735836603.692,32.227,61.035,46.875,107.422,44.434
1735836603.696,40.039,63.477,54.199,65.918,50.781
1735836603.700,58.105,50.293,43.457,60.059,61.523
1735836603.703,46.875,41.504,34.668,94.238,57.617
1735836603.707,41.016,45.410,35.156,95.703,34.668
1735836603.711,82.520,23.438,32.715,109.375,20.020
1735836603.715,77.637,15.625,34.668,83.496,30.273
1735836603.719,38.086,36.621,31.250,68.848,42.969
1735836603.723,44.922,45.410,30.273,63.477,38.086
1735836603.727,49.316,49.805,38.086,45.898,27.344
1735836603.731,34.180,58.105,53.711,35.645,-13.184
1735836603.735,20.020,41.016,38.574,45.410,-1.953
1735836603.739,20.508,25.879,20.996,85.449,39.551
1735836603.743,21.973,25.879,23.926,56.641,25.879
1735836603.746,37.598,37.598,32.227,15.625,0.488
1735836603.750,66.406,36.621,44.434,41.016,0.488
1735836603.754,42.969,24.902,41.992,70.801,23.926
1735836603.758,12.207,39.551,45.898,76.172,14.160
1735836603.762,13.184,50.293,46.387,34.180,18.555
1735836603.766,38.574,49.805,52.734,18.066,55.664
1735836603.770,49.316,31.738,45.410,71.777,31.250
1735836603.774,7.324,16.113,23.438,56.641,16.602
1735836603.778,10.254,32.227,39.551,26.855,10.254
1735836603.782,32.227,36.133,51.270,4.395,17.578
1735836603.785,28.809,27.344,51.758,31.738,37.598
1735836603.789,9.766,29.297,51.758,69.824,37.109
1735836603.793,20.020,35.156,54.199,66.895,42.969
1735836603.797,28.320,31.250,52.246,51.758,68.359
1735836603.801,6.836,35.156,49.805,32.227,71.289
1735836603.805,31.738,43.457,57.617,53.711,39.551
1735836603.809,44.922,46.875,56.152,59.082,9.277
1735836603.813,33.203,53.223,50.293,28.320,9.277
1735836603.817,29.785,43.945,49.805,30.273,36.133
1735836603.821,20.020,38.086,57.617,56.152,34.180
1735836603.825,37.598,56.152,69.824,52.246,-9.277
1735836603.828,31.738,44.922,56.152,19.531,0.488
1735836603.832,29.785,39.062,52.246,20.020,46.875
1735836603.836,50.781,42.480,50.293,69.824,51.270
1735836603.840,35.645,39.551,51.758,56.641,24.902
1735836603.844,19.531,42.969,55.176,36.133,15.625
1735836603.848,34.668,38.086,51.270,28.320,36.133
1735836603.852,30.273,36.621,60.547,77.148,34.668
1735836603.856,41.016,42.480,62.500,129.883,44.434
1735836603.860,67.871,64.941,67.383,58.105,13.672
1735836603.864,41.016,58.105,59.570,-6.348,-8.789
1735836603.867,16.113,29.297,41.504,16.602,48.340
1735836603.871,37.109,36.133,48.340,66.895,70.312
1735836603.875,45.410,48.828,63.477,61.035,40.527
1735836603.879,75.684,60.547,67.871,25.391,20.508
1735836603.883,81.543,59.570,57.129,29.785,29.785
1735836603.887,29.785,49.805,52.734,78.125,33.691
1735836603.891,33.203,49.805,62.012,98.145,47.852
1735836603.895,51.758,47.363,65.918,65.430,42.480
1735836603.899,44.434,49.805,64.941,9.277,30.273
1735836603.903,29.297,50.293,55.176,37.598,52.734
1735836603.907,31.250,55.664,62.500,88.867,26.855
1735836603.910,26.855,52.246,64.941,71.777,31.738
1735836603.914,38.086,43.457,54.199,23.438,44.922
1735836603.918,84.473,48.340,57.129,18.555,-6.836
1735836603.922,52.734,41.992,53.711,52.246,10.742
1735836603.926,-9.766,46.387,54.199,50.781,38.086
1735836603.930,6.348,54.199,54.199,8.301,44.922
1735836603.934,35.645,55.664,59.082,19.531,51.758
1735836603.938,22.461,59.570,67.871,55.664,31.738
1735836603.942,14.160,51.270,60.059,51.758,44.434
1735836603.946,15.137,46.387,64.941,27.832,53.223
1735836603.950,-1.953,50.293,67.383,15.625,37.109
1735836603.953,-13.672,57.617,69.824,45.410,26.367
1735836603.957,-6.348,65.918,67.383,35.645,16.602
1735836603.961,-1.465,55.664,51.758,3.418,29.785
1735836603.965,4.883,46.387,63.477,0.488,38.574
1735836603.969,22.949,52.734,62.988,38.086,35.156
1735836603.973,28.320,52.734,58.594,41.016,48.828
1735836603.977,-5.371,48.828,57.617,2.930,41.992
1735836603.981,-22.949,50.293,56.641,-19.043,20.996
1735836603.985,-13.672,39.551,55.176,10.742,49.316
1735836603.989,20.508,33.691,52.734,67.383,46.387
1735836603.992,31.250,43.945,66.895,48.828,23.926
1735836603.996,11.719,57.129,72.266,-10.254,47.852
1735836604.000,4.395,58.594,60.059,14.648,56.152
1735836604.004,21.973,49.316,54.688,55.664,44.922
1735836604.008,42.480,53.223,61.035,43.945,40.527
1735836604.012,19.531,70.801,79.102,-0.488,-3.418
1735836604.016,-4.395,55.664,65.918,-22.949,8.301
1735836604.020,-5.371,37.109,45.898,43.457,45.898
1735836604.024,-1.465,36.621,62.500,55.664,30.762
1735836604.028,20.508,48.828,78.125,36.133,16.602
1735836604.032,16.113,49.316,62.012,3.906,24.414
1735836604.035,14.648,32.227,44.434,10.742,57.129
1735836604.039,21.484,41.504,55.176,48.828,50.781
1735836604.043,4.395,53.223,66.895,38.086,45.898
1735836604.047,12.207,63.477,78.613,28.809,44.434
1735836604.051,22.949,61.523,81.055,22.461,20.508
1735836604.055,27.832,48.828,68.359,43.457,24.902
1735836604.059,28.809,48.828,67.383,78.125,42.969
1735836604.063,38.086,53.223,66.895,40.039,52.246
1735836604.067,45.410,58.105,62.988,27.832,48.828
1735836604.071,7.324,52.246,54.199,54.688,47.363
1735836604.075,5.859,45.898,56.641,48.828,51.270
1735836604.078,39.551,46.387,67.383,48.340,30.273
1735836604.082,20.996,52.246,70.312,25.391,4.883
1735836604.086,7.324,51.758,63.477,47.363,7.812
1735836604.090,24.414,50.293,63.965,78.613,13.184
1735836604.094,45.410,42.480,62.012,36.621,-0.488
1735836604.098,15.137,34.180,52.246,11.719,14.648
1735836604.102,-3.418,41.504,54.199,37.109,33.203
1735836604.106,34.180,68.848,59.082,52.246,8.789
1735836604.110,23.438,68.359,50.781,21.973,27.832
1735836604.114,-3.418,48.828,54.688,-10.742,51.270
1735836604.117,31.738,49.316,53.711,40.039,53.711
1735836604.121,55.176,60.547,60.059,95.215,41.504
1735836604.125,17.090,62.988,70.312,54.688,12.695
1735836604.129,13.672,51.758,67.383,2.441,34.668
1735836604.133,29.297,50.781,74.707,20.508,39.062
1735836604.137,17.090,41.992,62.500,52.734,50.293
1735836604.141,7.812,44.922,59.082,45.898,55.176
1735836604.145,5.371,48.828,66.406,3.418,9.766
1735836604.149,0.977,31.738,56.152,-41.504,15.625
1735836604.153,11.230,31.738,50.293,15.137,50.781
1735836604.157,25.879,48.828,56.152,75.684,47.852
1735836604.160,36.621,56.641,63.965,59.082,14.160
1735836604.164,16.602,53.223,53.223,25.879,9.277
1735836604.168,43.457,59.082,59.570,17.090,31.738
1735836604.172,66.895,64.453,75.195,59.082,32.227
1735836604.176,12.207,54.688,72.754,73.242,26.367
1735836604.180,4.395,48.340,74.707,30.273,36.133
1735836604.184,23.438,49.316,65.918,38.086,66.895
1735836604.188,32.715,49.805,61.035,69.824,69.336
1735836604.192,18.066,40.527,63.477,40.527,50.293
1735836604.196,16.602,39.062,61.035,18.066,29.297
1735836604.199,24.902,48.828,66.406,4.395,-12.207
1735836604.203,-0.488,37.109,48.828,20.020,27.832
1735836604.207,3.906,38.574,36.621,17.090,40.039
1735836604.211,22.461,46.875,35.156,1.465,36.133
1735836604.215,23.438,49.316,47.852,5.859,42.480
1735836604.219,18.555,46.387,61.035,43.945,22.949
1735836604.223,8.301,32.227,56.152,76.172,43.457
1735836604.227,26.855,25.879,59.570,47.363,10.742
1735836604.231,27.832,26.855,51.758,7.812,21.973
1735836604.235,24.902,41.992,51.758,2.930,49.805
1735836604.239,22.461,45.898,53.223,25.391,33.203
1735836604.242,-19.531,35.156,48.828,13.672,21.484
1735836604.246,-4.395,41.504,50.781,-18.555,16.602
1735836604.250,31.250,40.527,50.293,-11.719,49.316
1735836604.254,22.949,43.945,53.223,40.527,42.969
1735836604.258,1.953,49.316,46.875,53.223,20.508
1735836604.262,11.230,48.828,49.805,25.879,51.758
1735836604.266,47.363,51.758,65.918,8.789,64.453
1735836604.270,20.508,43.945,64.453,56.641,58.594
1735836604.274,-5.371,49.316,63.477,75.684,36.133
1735836604.278,13.672,60.547,69.824,23.926,19.531
1735836604.282,24.902,55.176,67.383,-7.324,31.738
1735836604.285,29.297,41.504,59.570,27.344,60.059
1735836604.289,36.621,39.551,55.176,63.965,43.457
1735836604.293,22.461,47.852,62.012,50.781,-2.930
1735836604.297,13.184,36.133,55.664,1.465,-5.371
1735836604.301,38.086,27.344,43.945,16.602,45.898
1735836604.305,31.250,35.156,49.805,54.199,45.410
1735836604.309,4.883,37.109,62.500,44.434,-2.930
1735836604.313,-3.906,36.621,60.547,-0.488,5.371
1735836604.317,-1.465,32.715,49.316,-7.812,41.504
1735836604.321,10.742,39.062,58.105,52.734,54.688
1735836604.324,12.207,49.316,62.500,50.293,37.598
1735836604.328,29.297,53.711,60.547,22.461,20.508
1735836604.332,16.602,44.434,60.547,-19.531,25.391
1735836604.336,-8.789,30.273,49.316,-4.883,17.578
1735836604.340,5.859,28.809,42.969,32.715,54.688
1735836604.344,6.348,33.203,56.152,15.137,65.918
1735836604.348,2.930,39.062,63.965,8.789,35.156
1735836604.352,25.391,33.203,62.012,27.832,51.758
1735836604.356,-1.465,29.297,62.500,48.828,50.781
1735836604.360,-36.621,34.180,66.406,30.273,43.457
1735836604.364,-10.254,35.645,67.383,-13.184,27.832
1735836604.367,-8.301,34.668,54.199,0.977,41.016
1735836604.371,-2.441,42.480,45.410,46.387,56.641
1735836604.375,5.859,41.504,57.129,33.203,17.090
1735836604.379,-3.906,32.227,55.664,-3.906,10.742
1735836604.383,17.578,38.574,55.664,-18.555,25.879
1735836604.387,51.758,52.734,74.219,30.273,0.977
1735836604.391,6.836,47.363,64.453,40.039,1.465
1735836604.395,-23.926,41.016,54.199,17.090,22.949
1735836604.399,-15.625,41.504,60.059,-15.625,26.367
1735836604.403,10.742,37.598,62.500,12.207,14.160
1735836604.407,39.551,27.344,62.988,72.266,14.648
1735836604.410,-1.953,21.484,55.176,43.945,37.598
1735836604.414,-11.230,30.273,50.293,-0.488,43.945
1735836604.418,22.949,38.086,53.711,12.207,45.898
1735836604.422,25.391,48.828,55.176,54.688,41.016
1735836604.426,13.672,50.781,54.688,57.129,46.875
1735836604.430,14.160,41.992,57.129,6.836,58.105
1735836604.434,22.949,43.457,62.988,7.812,39.551
1735836604.438,28.320,40.527,52.246,43.945,56.152
1735836604.442,28.320,53.711,60.547,44.922,51.758
1735836604.446,20.996,57.617,68.848,-0.488,1.465
1735836604.449,-1.465,37.109,53.223,-20.996,15.137
1735836604.453,22.461,31.250,55.664,46.875,50.293
1735836604.457,44.922,41.016,67.383,62.988,37.109
1735836604.461,31.738,56.641,72.266,24.414,8.789
1735836604.465,44.922,52.246,71.777,10.254,19.531
1735836604.469,32.715,46.387,70.312,33.203,36.621
1735836604.473,0.000,45.898,65.430,65.918,31.738
1735836604.477,1.465,43.945,66.406,48.340,38.086
1735836604.481,26.367,58.594,84.473,-2.441,16.113
1735836604.485,26.855,49.316,72.266,0.488,18.555
1735836604.489,26.855,34.668,53.223,55.176,45.898
1735836604.492,17.578,37.598,60.547,53.711,50.293
1735836604.496,7.812,54.688,78.613,-5.859,43.457
1735836604.500,14.160,59.082,77.637,-3.906,39.551
1735836604.504,10.254,42.969,58.594,74.219,68.359
1735836604.508,29.297,55.176,59.082,80.078,45.898
1735836604.512,77.148,59.082,59.570,31.250,24.902
1735836604.516,70.312,63.477,71.289,-2.441,6.348
1735836604.520,-6.836,63.477,65.430,23.438,-5.859
1735836604.524,-29.785,49.805,50.781,53.711,39.551
1735836604.528,0.977,53.223,58.105,27.832,49.805
1735836604.532,12.695,58.105,53.711,12.695,32.227
1735836604.535,27.344,54.688,51.270,39.062,49.805
1735836604.539,35.645,50.781,54.199,70.312,49.805
1735836604.543,14.160,59.570,62.012,74.707,30.273
1735836604.547,0.488,61.523,66.895,31.250,33.203
1735836604.551,37.109,56.152,62.988,18.555,31.250
1735836604.555,76.660,62.012,62.988,52.734,24.902
1735836604.559,16.602,70.801,64.941,56.641,24.902
1735836604.563,-3.418,70.801,69.336,17.090,6.836
1735836604.567,5.859,53.223,58.105,0.000,-9.277
1735836604.571,12.207,47.363,46.875,56.152,30.273
1735836604.574,44.434,75.195,67.871,51.270,20.508
1735836604.578,45.410,78.613,61.523,-5.371,1.953
1735836604.582,50.293,73.730,49.316,9.277,31.250
1735836604.586,40.039,77.148,55.664,71.289,54.688
1735836604.590,1.465,86.914,64.453,79.102,46.387
1735836604.594,-2.930,83.008,69.336,30.762,14.648
1735836604.598,5.859,67.383,60.059,-8.789,35.645
1735836604.602,8.301,74.219,59.570,26.367,48.340
1735836604.606,22.461,79.102,58.594,79.590,46.875
1735836604.610,39.062,88.379,60.059,79.102,35.645
1735836604.614,21.484,89.355,57.617,3.418,9.766
1735836604.617,18.066,69.824,40.039,-12.695,31.738
1735836604.621,2.930,69.824,41.504,47.363,56.641
1735836604.625,14.160,79.590,51.758,49.805,37.109
1735836604.629,56.152,88.379,58.594,21.484,7.324
1735836604.633,38.574,93.262,51.270,6.348,12.695
1735836604.637,34.180,82.520,38.086,49.316,28.320
1735836604.641,22.461,73.730,43.945,63.965,28.320
1735836604.645,20.508,79.102,44.434,46.387,48.828
1735836604.649,64.941,83.008,44.434,26.367,42.480
1735836604.653,48.828,76.172,51.758,34.180,35.156
1735836604.656,11.230,74.707,46.875,69.824,42.480
1735836604.660,15.625,69.824,43.457,62.500,60.059
1735836604.664,19.531,65.918,47.852,24.902,50.293
1735836604.668,33.203,76.172,62.988,16.602,11.719
1735836604.672,22.949,67.383,49.805,20.996,17.090
1735836604.676,28.320,70.312,35.156,39.551,7.324
1735836604.680,40.527,78.125,48.828,26.855,10.254
1735836604.684,53.223,72.266,45.410,24.902,35.156
1735836604.688,40.039,67.871,30.273,54.199,19.043
1735836604.692,46.875,66.406,34.180,32.227,17.090
1735836604.696,44.434,69.824,46.875,21.484,30.762
1735836604.699,5.859,61.523,55.176,24.902,24.414
1735836604.703,16.113,66.406,59.570,64.941,31.738
1735836604.707,16.602,77.637,62.012,66.406,35.156
1735836604.711,19.043,72.266,53.223,23.926,30.762
1735836604.715,34.668,72.754,51.758,24.902,40.527
1735836604.719,33.691,73.242,54.199,49.805,58.594
1735836604.723,45.898,81.055,61.523,70.312,53.711
1735836604.727,53.223,82.031,57.617,29.297,39.551
1735836604.731,52.246,78.125,50.293,-19.043,40.527
1735836604.735,44.922,81.055,59.082,35.156,52.734
1735836604.739,51.758,81.055,62.500,99.609,52.246
1735836604.742,81.055,81.055,54.199,84.961,39.551
1735836604.746,45.898,79.102,58.105,16.113,41.016
1735836604.750,30.273,71.777,68.848,12.695,56.152
1735836604.754,30.273,64.453,63.965,84.961,44.434
1735836604.758,11.719,73.730,62.012,71.777,40.039
1735836604.762,41.016,94.727,79.590,32.715,19.043
1735836604.766,45.898,83.008,73.242,-6.836,23.438
1735836604.770,21.973,71.289,58.105,15.625,39.551
1735836604.774,20.996,77.148,61.035,83.008,46.875
1735836604.778,28.809,85.449,72.754,68.359,45.898
1735836604.781,32.227,91.797,74.707,33.203,23.926
1735836604.785,23.926,77.637,65.918,32.715,38.574
1735836604.789,30.762,78.613,69.824,44.434,32.227
1735836604.793,37.109,79.102,63.965,45.410,26.855
1735836604.797,41.992,77.637,70.312,18.555,21.973
1735836604.801,41.504,73.730,66.895,31.250,13.672
1735836604.805,4.395,61.523,42.480,59.570,38.086
1735836604.809,-13.184,66.406,50.781,32.715,22.949
1735836604.813,-1.465,72.266,59.570,2.930,-1.465
1735836604.817,15.625,78.125,61.523,-2.441,7.324
1735836604.821,18.066,78.125,54.688,47.852,50.293
1735836604.824,23.926,75.684,52.246,52.734,73.730
1735836604.828,43.945,79.590,59.570,9.766,41.504
1735836604.832,50.293,74.707,53.711,4.883,24.902
1735836604.836,19.531,72.754,47.852,36.133,49.316
1735836604.840,-6.348,83.008,54.688,63.965,54.688
1735836604.844,-8.301,84.961,51.270,15.625,33.691
1735836604.848,-5.859,87.402,54.688,-21.973,21.484
1735836604.852,-25.391,88.379,55.664,15.625,32.227
1735836604.856,-18.066,95.215,65.430,43.945,11.719
1735836604.860,-37.598,79.102,69.336,-5.859,0.977
1735836604.864,-77.637,71.289,59.082,-79.102,13.184
1735836604.867,-69.336,87.402,53.223,-66.895,33.203
1735836604.871,-63.965,87.891,57.129,-16.113,29.785
1735836604.875,-91.309,85.938,66.895,-21.484,6.836
1735836604.879,-138.672,89.844,56.641,-61.035,15.625
1735836604.883,-143.066,96.680,57.617,-97.168,8.301
1735836604.887,-149.902,94.238,56.152,-76.660,8.789
1735836604.891,-151.855,105.469,57.129,-46.387,24.902
1735836604.895,-134.766,116.211,60.547,-88.379,10.254
1735836604.899,-168.945,106.445,51.758,-116.699,19.043
1735836604.903,-189.941,105.469,47.852,-81.055,50.293
1735836604.906,-166.504,109.863,52.734,-30.762,49.805
1735836604.910,-157.227,116.211,70.312,-17.578,23.438
1735836604.914,-166.504,115.234,64.941,-38.574,33.691
1735836604.918,-169.922,110.840,62.500,-7.324,71.777
1735836604.922,-145.996,117.676,78.613,3.906,56.641
1735836604.926,-147.949,122.559,75.684,1.953,42.969
1735836604.930,-134.766,122.070,73.730,1.465,50.293
1735836604.934,-117.676,120.605,74.219,19.043,45.410
1735836604.938,-134.766,107.422,83.984,113.281,68.359
1735836604.942,-120.605,104.980,91.309,118.652,73.242
1735836604.946,-108.887,126.465,95.703,76.172,49.316
1735836604.949,-88.379,153.320,123.047,90.820,36.133
1735836604.953,-89.355,139.648,113.770,132.812,47.363
1735836604.957,-117.676,126.465,118.164,170.898,49.316
1735836604.961,-70.801,135.742,134.766,157.227,40.039
1735836604.965,-55.176,145.996,143.066,157.715,29.297
1735836604.969,-84.473,142.090,154.297,217.285,39.551
1735836604.973,-75.684,133.789,143.555,249.023,54.688
1735836604.977,-53.223,149.414,143.066,237.305,29.297
1735836604.981,-42.480,148.926,148.926,195.801,25.391
1735836604.985,-36.133,148.438,140.625,233.398,53.711
1735836604.989,-42.480,146.973,133.301,281.738,52.734
1735836604.992,-62.012,138.672,120.605,253.906,46.875
1735836604.996,-20.996,139.648,122.070,249.023,55.176
1735836605.000,-1.465,135.742,117.188,271.973,77.637
1735836605.004,-44.434,141.602,114.746,325.684,83.008
1735836605.008,-46.387,149.414,138.672,322.266,55.176
1735836605.012,-48.828,157.715,144.531,277.344,25.391
1735836605.016,-27.344,160.645,143.066,258.301,41.504
1735836605.020,-2.441,158.691,145.020,296.875,57.617
1735836605.024,-25.879,160.645,146.973,322.754,39.062
1735836605.028,22.949,159.180,159.668,287.598,28.809
1735836605.031,41.992,166.504,172.852,230.957,-3.418
1735836605.035,-48.340,158.691,154.785,197.754,23.438
1735836605.039,-37.109,151.855,149.902,193.848,47.852
1735836605.043,27.344,162.109,164.551,175.293,4.883
1735836605.047,-0.488,142.578,156.250,102.051,-5.859
1735836605.051,-16.602,136.230,153.809,103.027,25.879
1735836605.055,8.789,158.691,160.645,133.789,40.527
1735836605.059,34.668,172.852,170.898,104.004,26.855
1735836605.063,27.344,173.828,168.945,70.801,21.973
1735836605.067,4.395,171.875,158.691,32.227,31.250
1735836605.071,40.039,176.758,171.387,77.148,35.645
1735836605.074,48.828,185.547,179.199,96.191,32.227
1735836605.078,26.367,194.824,180.664,34.668,23.438
1735836605.082,62.012,194.824,180.664,6.348,34.668
1735836605.086,52.734,185.547,186.035,23.926,38.574
1735836605.090,15.625,179.688,199.219,46.875,32.715
1735836605.094,38.574,171.875,201.660,5.859,24.902
1735836605.098,54.688,170.410,189.453,-57.129,18.555
1735836605.102,96.680,167.969,173.828,-50.781,28.320
1735836605.106,85.449,166.016,174.805,-6.348,41.992
1735836605.110,34.180,172.852,165.039,-24.902,29.297
1735836605.113,47.852,172.363,163.574,-130.371,14.160
1735836605.117,69.824,162.109,181.641,-151.855,27.832
1735836605.121,58.594,147.949,180.176,-83.496,39.551
1735836605.125,57.129,136.719,166.504,-112.793,28.809
1735836605.129,77.637,132.324,170.898,-202.637,27.832
1735836605.133,84.961,119.629,182.129,-255.371,37.109
1735836605.137,63.477,96.191,152.344,-242.676,22.461
1735836605.141,56.641,90.332,120.117,-231.934,24.414
1735836605.145,85.449,77.637,107.422,-284.668,0.977
1735836605.149,53.223,58.105,106.934,-322.754,12.207
1735836605.153,33.691,55.664,121.582,-286.133,60.059
1735836605.156,76.172,49.316,84.473,-312.500,33.691
1735836605.160,46.387,36.621,37.109,-427.246,39.551
1735836605.164,11.719,53.223,74.707,-536.621,37.598
1735836605.168,35.645,37.109,99.121,-612.305,20.508
1735836605.172,39.062,-14.160,70.801,-679.199,21.973
1735836605.176,4.395,-37.598,30.762,-767.578,-13.184
1735836605.180,-22.461,-32.715,-13.672,-835.449,6.348
1735836605.184,2.441,-10.254,-7.812,-843.750,56.152
1735836605.188,22.461,5.859,-0.977,-782.227,42.480
1735836605.192,2.441,11.230,-43.945,-789.551,20.508
1735836605.196,49.805,-7.324,-53.223,-821.289,21.484
1735836605.199,60.547,-3.418,-18.555,-812.988,47.363
1735836605.203,30.273,7.324,-2.441,-794.922,61.035
1735836605.207,72.754,15.625,-1.953,-769.043,50.781
1735836605.211,70.312,20.020,-4.883,-771.973,3.418
1735836605.215,49.316,5.371,-4.395,-774.902,-22.461
1735836605.219,67.871,-17.090,-1.953,-704.590,18.066
1735836605.223,90.820,-21.484,-8.301,-574.707,40.527
1735836605.227,98.633,-20.508,-16.113,-487.305,40.527
1735836605.231,109.863,-7.812,6.836,-454.102,23.438
1735836605.235,103.027,-6.836,8.301,-361.816,23.926
1735836605.238,106.445,-26.855,-14.160,-225.098,46.387
1735836605.242,122.559,-24.902,-5.371,-146.973,46.387
1735836605.246,125.977,-8.301,23.438,-109.375,32.715
1735836605.250,153.320,-9.766,28.809,-60.547,22.949
1735836605.254,153.320,-23.926,24.902,37.598,36.133
1735836605.258,147.461,-18.555,32.227,101.074,20.020
1735836605.262,160.645,-11.719,27.832,120.605,4.883
1735836605.266,184.570,-5.371,35.645,159.668,12.207
1735836605.270,169.434,-4.395,43.945,191.895,15.137
1735836605.274,150.391,-10.742,36.133,221.680,17.578
1735836605.278,173.340,-3.906,20.508,252.930,7.324
1735836605.281,185.547,-3.418,14.648,257.324,15.625
1735836605.285,204.102,-8.789,17.578,291.992,34.668
1735836605.289,207.031,-11.230,7.324,339.355,46.875
1735836605.293,197.266,-8.301,-0.488,341.797,29.785
1735836605.297,176.270,-9.766,-11.230,319.336,40.039
1735836605.301,157.227,-24.414,-19.531,328.125,54.688
1735836605.305,184.570,-29.785,-24.414,381.348,38.574
1735836605.309,207.520,-19.043,-25.391,383.789,19.043
1735836605.313,172.363,-13.184,-24.902,348.145,6.348
1735836605.317,141.113,-14.648,-27.344,331.055,19.531
1735836605.321,147.949,-17.578,-38.574,377.930,47.363
1735836605.324,197.266,3.418,-26.855,400.879,14.160
1735836605.328,208.984,8.301,-27.344,345.703,-14.648
1735836605.332,148.926,-1.465,-40.039,319.824,15.625
1735836605.336,120.117,-6.836,-43.457,367.188,44.434
1735836605.340,128.906,-8.789,-39.062,397.949,32.715
1735836605.344,155.762,-4.395,-30.762,359.375,12.695
1735836605.348,148.438,-6.348,-36.621,314.941,27.832
1735836605.352,107.910,-3.418,-50.293,356.934,63.965
1735836605.356,113.770,9.277,-51.758,381.348,53.711
1735836605.360,133.301,23.926,-27.832,326.172,22.461
1735836605.363,99.121,30.762,-11.230,268.555,20.508
1735836605.367,107.910,26.367,-22.949,261.719,41.504
1735836605.371,146.484,32.715,-18.066,331.055,68.359
1735836605.375,118.652,44.434,1.953,344.727,51.270
1735836605.379,121.094,60.547,18.066,319.824,9.766
1735836605.383,131.836,62.988,13.672,298.828,26.367
1735836605.387,123.047,59.082,8.301,322.266,55.664
1735836605.391,149.902,74.219,12.695,356.934,41.992
1735836605.395,148.438,88.379,12.695,325.684,32.715
1735836605.399,135.742,93.750,49.805,288.574,33.203
1735836605.403,150.391,89.844,97.656,295.410,46.875
1735836605.406,139.160,92.773,114.746,318.359,51.270
1735836605.410,133.789,99.121,115.234,309.570,51.758
1735836605.414,127.441,108.887,113.281,260.254,43.457
1735836605.418,139.160,123.047,123.535,270.020,5.859
1735836605.422,124.512,111.328,116.699,295.898,20.996
1735836605.426,128.418,120.117,120.117,280.273,39.551
1735836605.430,168.457,144.531,137.695,288.086,26.367
1735836605.434,194.824,164.062,157.715,316.406,40.527
1735836605.438,196.289,177.734,172.852,371.094,62.988
1735836605.442,206.543,178.223,169.922,366.699,50.293
1735836605.446,186.523,172.363,163.574,301.758,21.973
1735836605.449,143.555,158.691,139.160,283.691,55.664
1735836605.453,111.816,165.039,123.047,318.848,45.410
1735836605.457,93.750,152.832,113.281,321.777,9.277
1735836605.461,64.453,127.441,96.191,258.789,21.973
1735836605.465,34.180,138.672,90.332,224.121,30.762
1735836605.469,29.785,136.230,101.074,264.648,30.762
1735836605.473,21.973,136.719,108.887,310.059,22.461
1735836605.477,-38.574,140.137,90.332,328.613,7.812
1735836605.481,-80.566,138.184,83.984,299.805,-0.488
1735836605.485,-46.875,134.277,79.102,314.453,21.484
1735836605.488,-88.379,125.488,71.777,382.324,65.918
1735836605.492,-140.625,148.438,83.984,378.418,64.941
1735836605.496,-100.098,166.504,104.492,322.754,24.902
1735836605.500,-76.660,162.598,116.211,269.531,24.902
1735836605.504,-100.586,167.969,110.840,293.457,54.199
1735836605.508,-106.934,173.828,106.934,336.426,37.109
1735836605.512,-87.402,188.477,127.930,324.707,-8.789
1735836605.516,-58.594,187.988,135.742,346.680,-5.371
1735836605.520,-55.664,183.105,133.301,412.598,34.668
1735836605.524,-97.168,178.223,145.996,418.945,48.340
1735836605.528,-79.102,191.406,151.367,400.391,32.227
1735836605.531,-37.598,208.008,150.391,363.281,24.902
1735836605.535,-62.988,193.848,141.113,356.934,50.293
1735836605.539,-76.660,199.707,129.883,377.441,69.336
1735836605.543,-51.758,217.285,125.977,368.164,50.293
1735836605.547,-10.254,237.305,156.738,367.188,21.484
1735836605.551,-6.348,237.793,162.598,386.230,42.480
1735836605.555,-31.250,226.562,136.719,431.152,74.219
1735836605.559,-7.324,239.258,160.645,393.555,55.664
1735836605.563,29.785,250.488,177.246,330.566,29.297
1735836605.567,48.828,257.812,200.195,320.801,12.207
1735836605.570,8.301,257.324,201.660,334.473,10.742
1735836605.574,4.395,254.395,200.684,312.500,41.992
1735836605.578,76.660,256.348,230.469,243.164,33.203
1735836605.582,79.102,264.648,229.492,224.609,42.480
1735836605.586,56.152,281.738,241.211,279.297,57.129
1735836605.590,76.660,297.852,274.414,297.363,20.508
1735836605.594,107.910,323.242,286.133,278.809,2.441
1735836605.598,135.254,334.961,297.363,233.887,7.812
1735836605.602,152.344,336.914,309.082,256.836,40.527
1735836605.606,207.031,376.465,333.008,350.586,42.480
1735836605.610,239.258,391.602,345.703,329.590,16.602
1735836605.613,237.305,382.812,339.355,270.996,31.250
1735836605.617,220.703,383.301,351.074,265.137,55.664
1735836605.621,210.449,372.070,348.145,299.316,53.711
1735836605.625,221.680,348.145,335.449,261.719,35.645
1735836605.629,229.980,339.355,335.938,183.105,20.996
1735836605.633,192.383,341.309,333.008,150.391,23.926
1735836605.637,201.660,345.703,306.152,163.574,32.227
1735836605.641,239.746,358.398,293.945,186.035,25.391
1735836605.645,209.961,349.609,300.293,125.000,10.742
1735836605.649,191.895,318.848,291.016,44.434,20.020
1735836605.653,193.848,302.734,288.086,65.918,36.133
1735836605.656,173.828,297.363,286.621,85.449,49.316
1735836605.660,186.523,290.039,285.156,41.504,19.043
1735836605.664,198.730,271.484,289.062,-21.973,6.348
1735836605.668,190.430,254.395,292.969,-29.785,48.828
1735836605.672,205.078,246.094,302.246,-24.414,54.199
1735836605.676,171.875,239.746,309.082,-68.848,11.230
1735836605.680,119.629,223.145,275.879,-142.090,-7.812
1735836605.684,129.395,187.500,234.863,-180.176,17.090
1735836605.688,137.695,161.133,237.793,-176.758,39.551
1735836605.692,91.797,141.113,231.934,-250.000,19.531
1735836605.695,62.500,112.793,190.918,-314.941,8.789
1735836605.699,87.891,101.074,160.156,-360.352,-12.695
1735836605.703,87.891,62.012,119.141,-434.082,-2.441
1735836605.707,45.898,15.137,110.840,-502.930,23.926
1735836605.711,0.977,-2.441,127.441,-585.938,15.625
1735836605.715,24.414,0.000,107.422,-680.664,28.809
1735836605.719,41.504,-26.855,82.031,-710.449,35.156
1735836605.723,-26.367,-92.285,60.547,-726.562,17.578
1735836605.727,-84.961,-113.281,35.156,-767.090,-0.488
1735836605.731,-113.281,-115.234,-28.320,-822.266,10.254
1735836605.735,-108.887,-139.648,-55.176,-855.469,-0.488
1735836605.738,-103.027,-170.898,-99.121,-807.617,-6.836
1735836605.742,-133.789,-194.824,-150.391,-821.289,15.137
1735836605.746,-110.840,-180.176,-120.117,-887.207,27.832
1735836605.750,-54.688,-160.645,-136.230,-899.902,41.992
1735836605.754,-54.688,-159.180,-154.785,-861.816,36.133
1735836605.758,-100.586,-184.570,-166.016,-839.355,12.695
1735836605.762,-126.953,-209.961,-164.062,-853.516,-2.930
1735836605.766,-105.957,-196.777,-176.758,-783.203,21.484
1735836605.770,-78.613,-220.215,-167.969,-638.672,49.316
1735836605.774,-52.246,-239.258,-125.000,-520.020,33.203
1735836605.777,-51.270,-205.566,-127.930,-447.266,28.320
1735836605.781,-48.340,-186.523,-131.836,-407.227,38.086
1735836605.785,-41.992,-177.246,-125.488,-309.570,50.781
1735836605.789,-25.391,-169.434,-132.812,-227.539,52.734
1735836605.793,-21.484,-156.738,-121.582,-201.172,21.973
1735836605.797,-20.020,-175.293,-117.188,-189.941,3.906
1735836605.801,-6.836,-191.406,-126.465,-123.047,37.109
1735836605.805,11.230,-170.898,-121.582,2.930,70.801
1735836605.809,54.199,-145.996,-93.262,-5.371,51.758
1735836605.813,29.785,-139.160,-51.758,-44.922,3.906
1735836605.817,-16.113,-152.832,-39.551,-6.836,11.230
1735836605.820,16.113,-152.344,-43.457,64.941,43.457
1735836605.824,48.340,-142.090,-51.270,125.000,43.457
1735836605.828,50.293,-134.766,-49.805,107.910,17.090
1735836605.832,55.176,-140.137,-48.828,81.055,17.578
1735836605.836,57.617,-165.527,-69.824,144.531,40.039
1735836605.840,68.359,-155.762,-64.941,212.891,43.945
1735836605.844,75.195,-133.301,-54.688,229.980,30.273
1735836605.848,94.238,-126.953,-57.617,204.102,43.457
1735836605.852,111.328,-128.418,-64.941,222.168,55.176
1735836605.856,65.430,-128.418,-72.754,295.410,36.133
1735836605.860,71.289,-118.652,-68.848,334.473,24.414
1735836605.863,97.168,-117.188,-65.430,304.688,29.785
1735836605.867,63.965,-121.094,-78.613,277.832,59.570
1735836605.871,64.941,-118.652,-80.566,317.871,55.664
1735836605.875,77.148,-110.840,-64.453,350.586,34.180
1735836605.879,70.801,-102.539,-63.477,326.172,43.945
1735836605.883,80.566,-88.379,-59.570,319.824,46.387
1735836605.887,90.820,-75.684,-60.059,348.633,34.668
1735836605.891,78.613,-86.426,-71.289,329.102,29.785
1735836605.895,71.289,-83.008,-65.918,318.848,23.926
1735836605.899,77.637,-68.359,-64.453,310.059,23.926
1735836605.902,111.328,-57.129,-61.035,334.961,58.594
1735836605.906,110.352,-45.410,-41.992,332.031,55.664
1735836605.910,45.410,-49.316,-39.551,298.828,36.621
1735836605.914,36.133,-48.828,-41.992,298.340,42.480
1735836605.918,66.895,-46.875,-39.551,319.824,44.922
1735836605.922,75.684,-27.344,-32.227,336.914,48.340
1735836605.926,63.477,-14.160,-28.320,273.438,-6.348
1735836605.930,73.730,-29.297,-39.062,228.027,-14.648
1735836605.934,47.363,-40.527,-35.645,263.184,55.664
1735836605.938,33.203,-27.832,-35.156,298.828,63.477
1735836605.942,71.777,1.465,-25.879,301.758,27.344
1735836605.945,50.781,5.371,-3.418,241.211,4.883
1735836605.949,18.555,-7.324,-9.766,195.312,20.996
1735836605.953,19.531,-9.277,-18.555,252.930,53.223
1735836605.957,24.902,0.000,-15.137,271.973,39.551
1735836605.961,35.645,7.812,-10.742,247.559,6.348
1735836605.965,47.363,3.418,-10.254,204.102,17.578
1735836605.969,66.406,-2.930,-28.320,207.031,50.781
1735836605.973,83.008,-12.695,-41.992,241.211,49.316
1735836605.977,52.734,-6.836,-31.738,221.191,36.621
1735836605.981,32.227,20.508,2.441,184.570,-5.859
1735836605.985,28.809,15.137,9.766,160.156,-12.695
1735836605.988,18.066,4.395,-0.977,198.242,34.668
1735836605.992,28.320,15.137,4.883,231.445,42.969
1735836605.996,37.598,33.203,13.672,185.059,42.480
1735836606.000,50.293,30.762,9.277,147.461,23.438
1735836606.004,56.641,0.488,-12.695,179.199,24.414
1735836606.008,46.387,-1.465,-11.719,212.402,33.691
1735836606.012,44.922,13.672,-2.441,182.617,28.320
1735836606.016,51.758,25.391,2.930,147.949,39.551
1735836606.020,48.828,26.367,-2.441,159.668,36.621
1735836606.024,28.320,20.996,-7.324,158.203,43.945
1735836606.027,33.691,20.996,7.324,151.855,50.781
1735836606.031,33.691,20.508,10.254,123.535,41.504
1735836606.035,32.715,28.320,5.859,142.090,44.922
1735836606.039,37.109,30.273,16.602,180.664,46.387
1735836606.043,35.156,32.227,25.391,173.828,24.414
1735836606.047,49.316,37.109,22.949,144.043,16.113
1735836606.051,69.824,31.250,33.203,137.207,63.965
1735836606.055,83.984,16.113,46.387,175.781,65.918
1735836606.059,97.656,19.531,35.645,168.945,25.879
1735836606.063,69.824,29.785,20.020,137.207,35.156
1735836606.067,1.953,27.832,18.066,122.559,31.250
1735836606.070,3.418,24.414,20.020,162.109,44.434
1735836606.074,38.086,38.574,22.461,188.965,39.551
1735836606.078,44.922,32.227,5.859,120.117,18.066
1735836606.082,45.898,23.926,16.113,69.824,34.180
1735836606.086,39.551,30.762,26.855,123.047,39.551
1735836606.090,30.273,35.645,29.297,163.086,20.996
1735836606.094,41.504,42.480,36.133,135.742,11.719
1735836606.098,63.477,36.621,28.809,84.473,44.434
1735836606.102,101.074,33.691,30.273,85.449,58.105
1735836606.106,68.359,36.621,27.344,142.578,48.828
1735836606.110,28.809,54.199,32.227,143.066,13.184
1735836606.113,42.969,66.895,40.527,105.469,-13.184
1735836606.117,41.992,53.223,21.973,93.750,38.086
1735836606.121,31.250,42.969,14.160,126.465,63.477
1735836606.125,34.668,44.922,26.855,159.668,57.129
1735836606.129,75.195,62.988,55.664,132.812,40.527
1735836606.133,77.637,58.594,58.105,105.469,40.527
1735836606.137,45.898,42.480,40.039,145.508,64.941
1735836606.141,52.246,42.969,34.180,157.227,45.898
1735836606.145,82.520,43.457,32.227,124.023,39.551
1735836606.149,107.910,52.246,42.480,102.051,41.992
1735836606.152,70.312,51.758,55.664,136.230,19.531
1735836606.156,41.504,52.734,45.410,142.090,13.672
1735836606.160,56.152,56.152,36.133,109.863,35.645
1735836606.164,47.363,57.617,45.898,106.934,42.480
1735836606.168,53.711,73.730,58.105,115.234,18.066
1735836606.172,62.500,61.035,52.734,136.230,8.789
1735836606.176,62.012,38.086,48.340,121.582,24.414
1735836606.180,59.570,41.504,47.852,102.539,16.602
1735836606.184,67.383,45.898,42.969,124.512,20.996
1735836606.188,71.777,40.527,46.387,156.250,29.785
1735836606.192,62.500,42.969,38.086,147.949,30.762
1735836606.195,67.383,58.594,45.898,99.121,24.902
1735836606.199,62.988,62.988,58.105,73.242,42.480
1735836606.203,63.477,59.082,54.688,138.672,33.691
1735836606.207,87.402,62.012,64.453,153.809,-9.766
1735836606.211,88.867,58.105,58.594,111.328,-5.371
1735836606.215,53.223,61.523,52.734,87.891,36.133
1735836606.219,46.387,65.918,57.129,96.680,60.059
1735836606.223,48.828,66.406,63.477,137.207,49.316
1735836606.227,50.293,60.059,54.199,130.371,45.898
1735836606.231,72.266,51.758,38.086,103.027,45.410
1735836606.234,84.961,46.387,37.109,108.887,51.758
1735836606.238,65.430,67.383,47.363,140.137,56.152
1735836606.242,75.195,94.238,63.965,148.926,38.086
1735836606.246,81.055,94.727,77.637,107.422,16.602
1735836606.250,64.941,82.031,71.289,81.543,34.668
1735836606.254,81.543,70.801,52.734,125.977,44.922
1735836606.258,117.676,72.266,60.059,144.043,19.043
1735836606.262,107.422,86.914,84.473,109.863,-23.926
1735836606.266,67.871,69.336,72.754,67.871,-13.184
1735836606.270,45.410,53.711,50.293,91.797,33.691
1735836606.274,44.922,65.918,44.922,116.211,49.316
1735836606.277,65.430,75.684,53.711,100.098,37.598
1735836606.281,78.613,84.961,65.430,93.750,29.297
1735836606.285,65.918,79.102,62.988,115.234,43.945
1735836606.289,66.406,85.449,66.895,148.438,43.945
1735836606.293,97.168,97.656,65.430,118.652,24.414
1735836606.297,113.770,88.867,73.242,90.332,2.441
1735836606.301,91.309,77.637,76.660,101.074,7.812
1735836606.305,52.246,71.289,54.688,138.672,30.762
1735836606.309,40.039,72.266,43.457,129.883,47.852
1735836606.313,58.105,78.613,47.852,68.848,48.340
1735836606.317,71.289,76.660,56.152,67.871,24.414
1735836606.320,46.875,62.988,47.852,107.422,56.641
1735836606.324,43.457,61.035,55.664,127.930,64.453
1735836606.328,45.898,57.129,55.176,111.328,48.828
1735836606.332,57.129,55.176,52.246,53.223,51.758
1735836606.336,93.750,56.152,49.805,72.266,37.109
1735836606.340,86.426,54.199,50.293,131.836,-1.953
1735836606.344,48.828,50.293,53.711,113.770,-5.371
1735836606.348,33.691,59.570,42.480,60.547,28.809
1735836606.352,44.434,58.594,31.250,62.500,38.574
1735836606.356,63.965,60.059,42.969,105.469,11.719
1735836606.359,63.477,55.664,40.527,103.027,15.137
1735836606.363,48.828,52.246,27.344,51.270,51.270
1735836606.367,44.922,59.082,40.039,35.156,48.828
1735836606.371,49.316,57.617,57.617,84.961,35.645
